timestamp,TP9,AF7,AF8,TP10,Right AUX
1508291858.0942225,4.8828125,24.90234375,23.92578125,27.34375,6.8359375
1508291858.0981288,12.6953125,29.296875,25.390625,21.484375,19.53125
1508291858.102035,12.6953125,30.76171875,15.625,23.4375,-25.390625
1508291858.1059413,2.44140625,21.97265625,17.578125,24.90234375,16.11328125
1508291858.1098475,-3.41796875,22.4609375,24.4140625,32.2265625,56.15234375
1508291858.1137538,11.23046875,22.4609375,21.97265625,38.57421875,24.90234375
1508291858.11766,9.765625,31.25,13.671875,22.94921875,28.3203125
1508291858.1215663,-0.9765625,30.2734375,3.90625,8.30078125,1.46484375
1508291858.1254725,9.27734375,17.578125,8.7890625,14.6484375,-25.390625
1508291858.1293788,17.08984375,21.484375,29.296875,33.203125,28.80859375
1508291858.133285,10.25390625,23.4375,23.92578125,35.64453125,27.34375
1508291858.1371913,-3.41796875,24.90234375,13.18359375,17.578125,12.20703125
1508291858.1392546,-0.9765625,24.90234375,10.7421875,13.671875,48.33984375
1508291858.1431608,6.8359375,23.92578125,16.11328125,30.76171875,47.8515625
1508291858.147067,16.6015625,23.92578125,12.20703125,32.71484375,27.34375
1508291858.1509733,17.08984375,25.390625,8.7890625,12.6953125,28.80859375
1508291858.1548796,22.4609375,28.80859375,20.01953125,17.08984375,22.4609375
1508291858.1587858,33.203125,22.94921875,27.83203125,29.296875,44.921875
1508291858.162692,17.578125,24.4140625,24.90234375,21.484375,33.203125
1508291858.1665983,-0.9765625,23.4375,13.671875,21.484375,-7.32421875
1508291858.1705046,-1.953125,21.97265625,14.6484375,21.484375,39.55078125
1508291858.1744108,25.390625,30.2734375,14.6484375,22.94921875,50.78125
1508291858.178317,28.3203125,29.78515625,11.71875,22.94921875,48.33984375
1508291858.1822233,19.53125,26.3671875,7.32421875,13.671875,43.45703125
1508291858.1857865,22.94921875,24.90234375,12.6953125,14.6484375,41.9921875
1508291858.1896927,24.90234375,21.484375,16.11328125,31.25,33.69140625
1508291858.193599,16.11328125,20.99609375,10.7421875,33.69140625,42.96875
1508291858.1975052,3.90625,21.484375,24.90234375,26.3671875,71.2890625
1508291858.2014115,10.25390625,28.80859375,16.6015625,6.8359375,15.13671875
1508291858.2053177,21.484375,32.71484375,7.8125,9.27734375,25.87890625
1508291858.209224,20.01953125,27.34375,1.46484375,14.6484375,38.57421875
1508291858.2131302,15.13671875,26.3671875,-2.9296875,-1.46484375,21.484375
1508291858.2170365,6.8359375,29.78515625,8.7890625,4.39453125,63.4765625
1508291858.2209427,1.46484375,26.3671875,5.37109375,15.13671875,55.17578125
1508291858.224849,15.625,24.4140625,10.25390625,22.4609375,51.7578125
1508291858.2287552,17.08984375,24.90234375,11.23046875,21.97265625,78.61328125
1508291858.2291362,5.859375,23.92578125,5.37109375,13.18359375,73.73046875
1508291858.2330425,0.48828125,28.80859375,-5.859375,10.7421875,68.84765625
1508291858.2369487,11.23046875,35.64453125,-10.7421875,18.06640625,49.8046875
1508291858.240855,29.296875,37.59765625,0.9765625,25.390625,3.90625
1508291858.2447612,13.18359375,31.73828125,3.90625,23.92578125,-8.7890625
1508291858.2486675,-7.8125,29.296875,-7.32421875,7.32421875,19.04296875
1508291858.2525737,7.32421875,28.3203125,-15.13671875,1.46484375,-13.18359375
1508291858.25648,21.484375,24.4140625,0.0,6.8359375,-31.25
1508291858.2603862,10.7421875,24.4140625,11.23046875,20.01953125,12.20703125
1508291858.2642925,4.39453125,27.34375,-5.37109375,21.97265625,-18.5546875
1508291858.2681987,14.6484375,27.34375,-4.8828125,17.578125,-44.43359375
1508291858.272105,29.296875,28.80859375,10.7421875,27.83203125,-25.87890625
1508291858.2891965,22.4609375,30.76171875,9.765625,30.76171875,-17.578125
1508291858.2931027,2.44140625,26.3671875,6.8359375,15.625,13.18359375
1508291858.297009,-6.34765625,23.92578125,6.34765625,3.41796875,-2.9296875
1508291858.3009152,6.34765625,20.99609375,11.23046875,16.6015625,7.8125
1508291858.3048215,4.39453125,18.5546875,12.20703125,18.5546875,18.5546875
1508291858.3087277,-3.90625,24.4140625,-6.34765625,5.859375,-25.87890625
1508291858.312634,-6.34765625,26.3671875,-3.90625,1.953125,-0.9765625
1508291858.3165402,6.34765625,22.94921875,13.671875,25.390625,30.2734375
1508291858.3204465,4.39453125,20.99609375,10.7421875,40.0390625,47.36328125
1508291858.3243527,1.953125,17.08984375,14.16015625,23.4375,98.14453125
1508291858.328259,11.23046875,18.06640625,15.625,20.5078125,51.7578125
1508291858.3321652,-0.48828125,20.01953125,13.671875,16.6015625,8.30078125
1508291858.334208,-2.44140625,21.484375,16.11328125,22.4609375,58.10546875
1508291858.3381143,-2.9296875,23.4375,8.7890625,29.78515625,55.17578125
1508291858.3420205,-27.83203125,21.97265625,2.9296875,17.08984375,43.45703125
1508291858.3459268,-12.20703125,26.85546875,2.44140625,22.4609375,27.83203125
1508291858.349833,15.625,29.78515625,4.8828125,38.57421875,28.80859375
1508291858.3537393,-8.30078125,24.90234375,2.44140625,30.2734375,39.55078125
1508291858.3576455,-27.34375,23.4375,-0.9765625,15.625,53.7109375
1508291858.3615518,-21.484375,20.01953125,3.90625,25.87890625,64.453125
1508291858.365458,-12.20703125,26.85546875,1.953125,27.83203125,27.34375
1508291858.3693643,-1.953125,29.296875,-4.8828125,23.4375,5.859375
1508291858.3732705,12.6953125,23.92578125,16.6015625,44.43359375,-17.08984375
1508291858.3771768,7.8125,29.296875,33.203125,62.01171875,-19.04296875
1508291858.3792677,0.9765625,30.2734375,28.3203125,42.48046875,-25.87890625
1508291858.383174,-9.765625,33.203125,22.94921875,23.4375,-35.64453125
1508291858.3870802,-25.87890625,39.0625,19.53125,18.06640625,5.859375
1508291858.3909864,-41.015625,38.57421875,13.18359375,11.71875,17.578125
1508291858.3948927,-44.43359375,38.57421875,2.9296875,8.7890625,16.6015625
1508291858.398799,-20.01953125,46.875,-2.44140625,12.20703125,11.23046875
1508291858.4027052,-12.6953125,44.43359375,3.90625,6.8359375,15.625
1508291858.4066114,-37.109375,41.50390625,5.37109375,1.46484375,36.62109375
1508291858.4105177,-39.55078125,43.9453125,-8.30078125,10.7421875,27.83203125
1508291858.414424,-18.06640625,41.9921875,-2.44140625,16.6015625,13.671875
1508291858.4183302,-10.7421875,41.015625,20.01953125,16.6015625,-0.9765625
1508291858.4222364,-29.296875,37.59765625,19.53125,7.8125,-7.8125
1508291858.4243162,-34.1796875,41.9921875,17.08984375,9.765625,29.296875
1508291858.4282224,-17.578125,48.828125,19.04296875,21.97265625,36.1328125
1508291858.4321287,-15.13671875,44.921875,15.625,29.78515625,24.90234375
1508291858.436035,-20.99609375,44.921875,8.30078125,22.4609375,9.27734375
1508291858.4399412,-24.90234375,45.41015625,7.32421875,18.06640625,-13.671875
1508291858.4438474,-1.953125,45.8984375,11.23046875,23.92578125,-11.23046875
1508291858.4477537,4.8828125,45.8984375,11.71875,23.92578125,-7.8125
1508291858.45166,-4.39453125,43.45703125,-1.46484375,26.3671875,-27.83203125
1508291858.4555662,-15.625,43.9453125,-12.20703125,16.6015625,-55.17578125
1508291858.4594724,-16.6015625,41.9921875,-10.7421875,20.01953125,-16.11328125
1508291858.4633787,-11.71875,38.57421875,-6.34765625,35.64453125,34.1796875
1508291858.467285,-3.41796875,39.55078125,-10.25390625,31.25,-6.34765625
1508291858.4693484,-1.46484375,42.48046875,-8.7890625,21.97265625,-44.921875
1508291858.4732547,-11.23046875,43.9453125,-4.39453125,30.76171875,-45.41015625
1508291858.477161,-0.9765625,40.0390625,-4.8828125,43.9453125,-17.08984375
1508291858.4810672,-0.9765625,38.0859375,-11.23046875,36.1328125,-18.06640625
1508291858.4849734,-11.71875,40.0390625,-20.5078125,21.484375,-31.25
1508291858.4888797,-20.5078125,40.0390625,-15.13671875,19.04296875,-66.89453125
1508291858.492786,-17.08984375,35.64453125,-5.859375,37.59765625,-59.5703125
1508291858.4966922,-22.94921875,26.3671875,-14.6484375,44.43359375,-2.44140625
1508291858.5005984,-11.23046875,27.34375,-23.92578125,35.64453125,-27.34375
1508291858.5045047,1.46484375,37.59765625,-11.23046875,31.25,-40.0390625
1508291858.508411,4.39453125,37.109375,-5.859375,40.52734375,-9.27734375
1508291858.5123172,4.8828125,27.83203125,-1.953125,46.38671875,7.8125
1508291858.5138814,-6.8359375,26.85546875,-5.37109375,44.921875,-8.7890625
1508291858.5177877,-18.5546875,22.4609375,-2.44140625,36.1328125,-3.41796875
1508291858.521694,-20.01953125,15.13671875,-2.9296875,36.62109375,-14.6484375
1508291858.5256002,-8.7890625,23.4375,-3.90625,51.26953125,-18.06640625
1508291858.5295064,-5.859375,31.73828125,1.46484375,46.38671875,-8.30078125
1508291858.5334127,-1.953125,32.2265625,-3.90625,33.69140625,-21.484375
1508291858.537319,3.41796875,29.78515625,2.44140625,40.0390625,10.25390625
1508291858.5412252,4.39453125,27.34375,6.8359375,54.19921875,1.953125
1508291858.5451314,0.0,23.4375,12.20703125,46.875,-47.8515625
1508291858.5490377,-12.20703125,19.04296875,17.08984375,42.48046875,-13.671875
1508291858.552944,-11.23046875,25.390625,3.90625,37.109375,35.15625
1508291858.5568502,17.08984375,31.25,-3.90625,42.96875,15.13671875
1508291858.5589325,8.7890625,27.34375,-0.48828125,53.7109375,3.90625
1508291858.5628388,-2.9296875,30.2734375,-6.8359375,56.640625,29.296875
1508291858.566745,-11.71875,27.83203125,-16.6015625,49.8046875,28.3203125
1508291858.5706513,-20.01953125,21.97265625,-3.41796875,47.8515625,19.04296875
1508291858.5745575,-3.41796875,23.4375,4.8828125,58.10546875,37.109375
1508291858.5784638,-6.34765625,22.94921875,-3.90625,59.08203125,42.48046875
1508291858.58237,-6.8359375,29.78515625,-20.01953125,52.734375,9.765625
1508291858.5862763,6.34765625,32.71484375,-15.625,43.9453125,-24.4140625
1508291858.5901825,2.44140625,22.4609375,13.671875,56.640625,44.43359375
1508291858.5940888,-7.32421875,20.01953125,5.37109375,65.91796875,34.1796875
1508291858.597995,-11.71875,22.94921875,-5.859375,46.875,-17.578125
1508291858.6019013,-14.16015625,24.90234375,5.37109375,49.8046875,-9.27734375
1508291858.6039438,5.37109375,28.80859375,6.34765625,70.80078125,-1.46484375
1508291858.60785,19.53125,30.2734375,0.0,67.87109375,-10.25390625
1508291858.6117563,6.8359375,28.80859375,-6.8359375,52.24609375,-15.13671875
1508291858.6156626,-5.37109375,25.390625,-11.71875,46.38671875,7.32421875
1508291858.6195688,-4.39453125,23.92578125,-4.39453125,53.22265625,17.578125
1508291858.623475,4.39453125,25.390625,-0.9765625,63.96484375,15.625
1508291858.6273813,0.48828125,27.34375,-10.7421875,62.5,-0.48828125
1508291858.6312876,-14.16015625,27.34375,-8.30078125,44.921875,-19.04296875
1508291858.6351938,-10.7421875,25.390625,9.27734375,57.12890625,-3.90625
1508291858.6391,-0.9765625,23.92578125,4.8828125,72.265625,16.6015625
1508291858.6430063,8.7890625,22.94921875,-0.48828125,67.3828125,27.34375
1508291858.6469126,10.7421875,22.4609375,7.32421875,57.6171875,20.5078125
1508291858.6494787,0.9765625,26.3671875,9.27734375,51.26953125,26.85546875
1508291858.653385,3.90625,26.3671875,6.8359375,62.98828125,15.13671875
1508291858.6572912,-3.41796875,18.5546875,10.25390625,70.3125,-11.23046875
1508291858.6611974,-14.16015625,20.5078125,16.6015625,67.3828125,26.85546875
1508291858.6651037,-11.23046875,29.296875,10.25390625,53.22265625,-0.48828125
1508291858.66901,-3.90625,29.78515625,-0.48828125,46.38671875,-30.2734375
1508291858.6729162,-4.39453125,26.3671875,2.9296875,53.22265625,-16.6015625
1508291858.6768224,-18.5546875,21.484375,7.8125,49.8046875,10.25390625
1508291858.6807287,-39.0625,16.11328125,0.9765625,53.7109375,-0.48828125
1508291858.684635,-20.01953125,20.01953125,-4.39453125,60.05859375,-43.9453125
1508291858.6885412,8.7890625,21.97265625,3.90625,57.12890625,-41.015625
1508291858.6924474,2.44140625,18.5546875,12.20703125,58.59375,-37.59765625
1508291858.7090182,-11.23046875,19.04296875,10.25390625,56.640625,-18.5546875
1508291858.7129245,-20.5078125,19.53125,10.7421875,55.6640625,7.8125
1508291858.7168307,2.44140625,23.92578125,6.34765625,52.734375,12.6953125
1508291858.720737,13.671875,26.85546875,-0.48828125,46.875,-10.25390625
1508291858.7246432,0.48828125,25.87890625,-2.44140625,46.38671875,-3.41796875
1508291858.7285495,-2.9296875,28.80859375,0.48828125,49.31640625,-11.71875
1508291858.7324557,5.37109375,27.34375,11.71875,56.15234375,-5.37109375
1508291858.736362,8.7890625,22.4609375,22.94921875,57.6171875,37.109375
1508291858.7402682,12.20703125,25.390625,13.18359375,55.6640625,22.4609375
1508291858.7441745,-0.48828125,25.390625,1.953125,39.55078125,-23.4375
1508291858.7480807,9.765625,27.34375,10.25390625,48.828125,-55.17578125
1508291858.751987,30.76171875,31.25,11.71875,70.80078125,-55.6640625
1508291858.7540517,14.6484375,22.4609375,5.37109375,61.5234375,-30.2734375
1508291858.757958,-9.765625,16.6015625,8.7890625,52.24609375,-41.9921875
1508291858.7618642,-0.48828125,22.4609375,17.578125,55.6640625,-40.0390625
1508291858.7657704,17.578125,24.90234375,24.90234375,63.96484375,-45.8984375
1508291858.7696767,15.625,22.94921875,22.4609375,70.3125,-18.06640625
1508291858.773583,7.32421875,25.87890625,13.18359375,55.6640625,34.66796875
1508291858.7774892,-5.37109375,25.390625,13.671875,44.921875,27.83203125
1508291858.7813954,2.44140625,25.390625,25.87890625,58.59375,24.4140625
1508291858.7853017,14.16015625,28.80859375,21.97265625,56.15234375,4.39453125
1508291858.789208,6.8359375,32.71484375,17.08984375,36.62109375,-51.26953125
1508291858.7931142,-1.953125,29.78515625,36.1328125,41.9921875,-62.01171875
1508291858.7970204,4.8828125,28.3203125,42.48046875,61.5234375,-19.04296875
1508291858.7990835,18.5546875,28.80859375,39.55078125,63.96484375,-18.5546875
1508291858.8029897,3.90625,23.4375,38.57421875,53.7109375,-21.97265625
1508291858.806896,-10.7421875,24.90234375,36.1328125,41.50390625,6.8359375
1508291858.8108022,11.23046875,33.69140625,28.3203125,46.875,10.25390625
1508291858.8147085,20.99609375,36.1328125,19.53125,55.17578125,-5.859375
1508291858.8186147,11.71875,32.2265625,14.16015625,46.38671875,-0.9765625
1508291858.822521,3.90625,28.3203125,19.53125,39.55078125,-4.8828125
1508291858.8264272,3.41796875,26.3671875,29.78515625,51.7578125,32.2265625
1508291858.8303335,4.8828125,27.34375,16.6015625,54.6875,39.0625
1508291858.8342397,7.8125,30.2734375,18.5546875,48.33984375,11.71875
1508291858.838146,3.90625,31.73828125,26.3671875,47.36328125,20.99609375
1508291858.8420522,-13.18359375,30.2734375,20.01953125,51.26953125,25.87890625
1508291858.8441346,-8.30078125,31.25,23.92578125,59.5703125,47.8515625
1508291858.8480408,-0.48828125,36.1328125,23.92578125,59.5703125,38.57421875
1508291858.851947,-14.16015625,37.59765625,17.08984375,46.38671875,16.6015625
1508291858.8558533,-14.16015625,35.15625,11.23046875,34.1796875,15.13671875
1508291858.8597596,7.32421875,33.69140625,11.71875,40.0390625,33.203125
1508291858.8636658,3.90625,31.73828125,12.20703125,41.50390625,41.50390625
1508291858.867572,-10.7421875,32.2265625,16.6015625,35.15625,60.05859375
1508291858.8714783,-10.7421875,33.69140625,3.41796875,25.390625,37.109375
1508291858.8753846,-7.32421875,30.2734375,0.48828125,26.3671875,15.13671875
1508291858.8792908,0.0,27.83203125,18.5546875,41.015625,39.0625
1508291858.883197,-4.39453125,29.296875,17.08984375,44.43359375,24.90234375
1508291858.8871033,-12.6953125,30.76171875,15.625,36.62109375,7.32421875
1508291858.889146,3.41796875,33.69140625,17.578125,31.73828125,5.37109375
1508291858.8930523,12.6953125,32.2265625,15.13671875,37.109375,16.11328125
1508291858.8969586,5.37109375,28.3203125,11.23046875,44.43359375,9.765625
1508291858.9008648,-11.71875,26.85546875,4.8828125,33.203125,19.53125
1508291858.904771,-16.11328125,26.3671875,3.90625,30.2734375,35.64453125
1508291858.9086773,-1.46484375,28.80859375,4.8828125,41.50390625,40.52734375
1508291858.9125836,-6.8359375,27.34375,8.7890625,47.36328125,51.7578125
1508291858.9164898,-13.18359375,24.90234375,0.0,35.15625,-16.6015625
1508291858.920396,-15.625,24.90234375,1.46484375,22.94921875,-38.0859375
1508291858.9243023,-7.32421875,21.97265625,24.90234375,44.921875,9.765625
1508291858.9282086,0.0,21.97265625,19.53125,53.7109375,14.6484375
1508291858.9321148,-5.859375,26.3671875,13.671875,48.33984375,9.765625
1508291858.9341803,-17.08984375,26.3671875,19.04296875,45.41015625,-12.6953125
1508291858.9380865,-15.13671875,24.90234375,15.625,56.15234375,-22.94921875
1508291858.9419928,-9.27734375,23.4375,9.27734375,71.77734375,-9.27734375
1508291858.945899,-2.44140625,24.4140625,9.765625,72.265625,-20.5078125
1508291858.9498053,-3.41796875,23.4375,17.578125,64.94140625,-13.18359375
1508291858.9537115,-17.08984375,20.01953125,19.04296875,59.08203125,23.92578125
1508291858.9576178,-13.18359375,18.5546875,10.7421875,64.453125,16.11328125
1508291858.961524,-11.71875,19.04296875,12.6953125,59.08203125,-0.48828125
1508291858.9654303,-23.92578125,19.53125,23.92578125,40.0390625,-10.25390625
1508291858.9693365,-20.99609375,23.92578125,19.53125,44.921875,-25.87890625
1508291858.9732428,-8.30078125,27.83203125,12.6953125,62.5,-3.41796875
1508291858.977149,12.6953125,26.3671875,16.11328125,71.77734375,24.90234375
1508291858.9792118,14.6484375,29.78515625,17.08984375,76.171875,13.18359375
1508291858.983118,-13.671875,27.34375,12.20703125,59.5703125,18.06640625
1508291858.9870243,0.9765625,22.94921875,14.6484375,64.94140625,56.640625
1508291858.9909306,30.2734375,23.92578125,22.94921875,88.37890625,48.828125
1508291858.9948368,31.25,24.4140625,37.59765625,99.609375,-1.46484375
1508291858.998743,21.484375,23.4375,48.33984375,97.16796875,-30.2734375
1508291859.0026493,30.76171875,24.4140625,56.15234375,100.5859375,-54.19921875
1508291859.0065556,51.26953125,23.92578125,70.80078125,127.9296875,-39.0625
1508291859.0104618,67.3828125,20.01953125,81.54296875,154.296875,-24.90234375
1508291859.014368,71.2890625,19.04296875,75.1953125,148.4375,-35.64453125
1508291859.0182743,64.453125,16.6015625,66.89453125,133.30078125,-75.1953125
1508291859.0221806,85.9375,20.01953125,78.125,152.83203125,-72.265625
1508291859.0242434,116.69921875,22.94921875,79.58984375,178.22265625,-54.6875
1508291859.0281496,96.19140625,19.04296875,60.546875,165.0390625,-50.29296875
1508291859.0320559,93.26171875,20.99609375,52.24609375,166.015625,-40.0390625
1508291859.035962,123.046875,22.4609375,59.08203125,197.75390625,-43.9453125
1508291859.0398684,114.2578125,21.484375,59.5703125,198.73046875,-16.6015625
1508291859.0437746,102.05078125,21.484375,45.8984375,174.31640625,-31.73828125
1508291859.0476809,97.65625,18.5546875,47.8515625,168.45703125,-39.55078125
1508291859.051587,98.6328125,14.6484375,62.98828125,177.734375,-19.04296875
1508291859.0554934,104.4921875,19.53125,50.78125,173.828125,3.90625
1508291859.0593996,111.328125,23.92578125,45.8984375,162.59765625,15.13671875
1508291859.0633059,88.8671875,25.87890625,54.19921875,150.390625,-16.11328125
1508291859.067212,83.0078125,27.83203125,53.22265625,162.59765625,-26.3671875
1508291859.084284,92.28515625,23.4375,47.36328125,166.015625,-25.87890625
1508291859.0881903,83.984375,23.92578125,48.33984375,152.34375,-40.52734375
1508291859.0920966,68.359375,27.34375,45.8984375,139.16015625,-39.0625
1508291859.0960028,66.40625,27.83203125,36.62109375,136.23046875,-16.11328125
1508291859.099909,72.75390625,24.90234375,38.57421875,145.99609375,19.04296875
1508291859.1038153,62.01171875,20.99609375,34.1796875,138.18359375,22.4609375
1508291859.1077216,54.6875,27.34375,32.71484375,129.39453125,-13.18359375
1508291859.1116278,46.38671875,30.2734375,38.57421875,123.046875,0.9765625
1508291859.115534,44.921875,22.94921875,41.50390625,129.8828125,-7.8125
1508291859.1194403,48.33984375,22.4609375,38.0859375,116.69921875,-24.90234375
1508291859.1233466,37.109375,23.4375,41.9921875,99.609375,-23.92578125
1508291859.1272528,26.85546875,20.01953125,48.33984375,106.93359375,-13.671875
1508291859.1293194,38.57421875,21.484375,40.0390625,109.86328125,-32.71484375
1508291859.1332257,50.29296875,22.94921875,34.66796875,117.67578125,-24.90234375
1508291859.137132,41.50390625,20.5078125,30.2734375,116.2109375,9.765625
1508291859.1410382,27.34375,21.97265625,22.94921875,98.14453125,-15.13671875
1508291859.1449444,32.2265625,25.87890625,21.97265625,90.33203125,-12.20703125
1508291859.1488507,35.64453125,25.390625,26.3671875,97.16796875,6.8359375
1508291859.152757,24.90234375,20.99609375,30.2734375,93.75,-10.25390625
1508291859.1566632,7.32421875,17.578125,32.71484375,79.1015625,2.44140625
1508291859.1605694,5.859375,15.625,22.94921875,80.078125,-15.625
1508291859.1644757,13.18359375,15.625,26.3671875,82.51953125,-6.34765625
1508291859.168382,11.71875,16.11328125,41.015625,89.35546875,46.38671875
1508291859.1722882,6.34765625,15.13671875,33.203125,96.6796875,29.78515625
1508291859.1743505,-4.8828125,16.6015625,27.83203125,81.0546875,30.76171875
1508291859.1782568,1.953125,21.484375,26.85546875,72.265625,0.0
1508291859.182163,10.7421875,20.01953125,22.94921875,75.1953125,-41.9921875
1508291859.1860693,-0.9765625,21.484375,14.16015625,72.265625,26.85546875
1508291859.1899755,-6.8359375,29.78515625,3.41796875,65.4296875,37.109375
1508291859.1938818,4.39453125,29.78515625,7.32421875,72.75390625,-22.94921875
1508291859.197788,13.18359375,26.85546875,22.4609375,81.54296875,8.7890625
1508291859.2016943,12.20703125,30.76171875,28.3203125,86.42578125,7.32421875
1508291859.2056005,1.46484375,33.69140625,8.7890625,66.89453125,-89.84375
1508291859.2095068,-3.41796875,31.25,14.6484375,54.19921875,-66.40625
1508291859.213413,3.41796875,24.90234375,27.34375,71.77734375,-4.39453125
1508291859.2173193,15.13671875,22.94921875,9.765625,82.03125,-47.36328125
1508291859.2188804,15.13671875,25.390625,0.48828125,81.54296875,-78.125
1508291859.2227867,-3.90625,25.390625,-4.8828125,61.5234375,-74.70703125
1508291859.226693,-9.765625,28.3203125,-13.18359375,43.45703125,-44.43359375
1508291859.2305992,-11.71875,25.390625,-26.85546875,37.109375,-37.109375
1508291859.2345054,-22.4609375,25.87890625,-42.96875,32.71484375,-42.48046875
1508291859.2384117,-32.71484375,31.73828125,-42.96875,27.83203125,-14.16015625
1508291859.242318,-18.5546875,27.83203125,-31.73828125,30.76171875,-0.48828125
1508291859.2462242,-22.4609375,24.4140625,-39.0625,37.59765625,-14.16015625
1508291859.2501304,-29.296875,26.3671875,-51.26953125,26.85546875,-21.484375
1508291859.2540367,-14.6484375,28.3203125,-41.50390625,21.484375,-24.4140625
1508291859.257943,-8.30078125,27.34375,-35.15625,37.59765625,1.46484375
1508291859.2618492,-10.7421875,30.76171875,-37.59765625,38.0859375,13.18359375
1508291859.2639122,-10.7421875,31.73828125,-37.59765625,33.203125,-19.04296875
1508291859.2678185,-13.671875,26.3671875,-34.1796875,30.2734375,-15.625
1508291859.2717247,-13.18359375,28.3203125,-35.15625,26.85546875,3.90625
1508291859.275631,-4.39453125,27.83203125,-29.296875,35.64453125,-13.671875
1508291859.2795372,-5.37109375,20.99609375,-12.6953125,40.0390625,-15.625
1508291859.2834435,-19.04296875,23.4375,-11.71875,30.2734375,-22.4609375
1508291859.2873497,-18.06640625,28.80859375,-13.18359375,25.390625,-51.7578125
1508291859.291256,-3.90625,27.34375,-24.4140625,31.25,-67.3828125
1508291859.2951622,4.39453125,25.87890625,-22.94921875,37.109375,-12.20703125
1508291859.2990685,2.9296875,28.3203125,-10.25390625,34.66796875,18.5546875
1508291859.3029747,-11.23046875,22.4609375,-10.25390625,27.83203125,0.9765625
1508291859.306881,-14.6484375,18.5546875,5.37109375,36.1328125,-1.46484375
1508291859.3089442,-1.953125,24.90234375,20.5078125,46.38671875,-3.90625
1508291859.3128505,5.37109375,25.390625,14.6484375,50.29296875,3.41796875
1508291859.3167567,-5.859375,26.3671875,-3.90625,44.43359375,12.20703125
1508291859.320663,6.34765625,31.25,-7.32421875,47.8515625,0.9765625
1508291859.3245692,2.44140625,32.71484375,-2.44140625,45.41015625,-22.4609375
1508291859.3284755,-7.8125,32.71484375,-2.9296875,45.41015625,-25.390625
1508291859.3323817,0.9765625,32.71484375,-9.27734375,37.59765625,-23.92578125
1508291859.336288,0.9765625,32.71484375,-3.41796875,29.78515625,-61.5234375
1508291859.3401942,10.7421875,27.34375,21.484375,56.640625,-31.73828125
1508291859.3441005,2.44140625,28.80859375,9.765625,55.6640625,0.9765625
1508291859.3480067,-17.578125,29.78515625,-6.34765625,27.83203125,-23.92578125
1508291859.351913,-14.16015625,27.83203125,-2.9296875,35.64453125,-0.9765625
1508291859.3539758,5.859375,33.203125,4.8828125,51.7578125,-7.8125
1508291859.357882,18.06640625,34.1796875,15.13671875,53.7109375,-17.08984375
1508291859.3617883,4.8828125,28.80859375,10.25390625,41.015625,-1.953125
1508291859.3656945,-11.71875,29.296875,7.8125,32.71484375,-19.04296875
1508291859.3696008,-5.859375,27.83203125,14.6484375,40.0390625,-31.73828125
1508291859.373507,5.859375,25.87890625,16.6015625,40.52734375,7.8125
1508291859.3774133,2.9296875,27.34375,7.32421875,27.34375,-9.765625
1508291859.3813195,-16.11328125,27.83203125,0.48828125,17.08984375,-5.859375
1508291859.3852258,-20.01953125,27.34375,9.765625,32.71484375,35.15625
1508291859.389132,-7.8125,23.92578125,4.39453125,46.875,18.5546875
1508291859.3930383,-2.9296875,27.83203125,-6.8359375,43.45703125,11.23046875
1508291859.3969445,-18.5546875,27.83203125,3.90625,32.71484375,42.48046875
1508291859.3990095,-20.5078125,24.90234375,3.41796875,27.83203125,50.29296875
1508291859.4029157,-3.41796875,27.34375,-11.23046875,36.62109375,-0.48828125
1508291859.406822,-1.46484375,25.87890625,-6.34765625,45.41015625,28.3203125
1508291859.4107282,-5.859375,23.4375,-2.44140625,38.0859375,35.64453125
1508291859.4146345,-6.34765625,25.390625,1.953125,35.15625,30.76171875
1508291859.4185407,7.32421875,27.83203125,0.48828125,57.12890625,59.5703125
1508291859.422447,23.4375,24.90234375,1.46484375,57.12890625,45.41015625
1508291859.4263532,5.859375,27.34375,14.16015625,38.57421875,63.96484375
1508291859.4302595,-17.08984375,28.80859375,8.30078125,42.96875,33.203125
1508291859.4341657,-1.953125,20.99609375,3.90625,45.8984375,6.8359375
1508291859.438072,6.8359375,21.97265625,7.32421875,43.9453125,25.390625
1508291859.4419782,3.41796875,25.87890625,6.34765625,55.6640625,-4.39453125
1508291859.459051,-2.44140625,29.296875,2.44140625,54.19921875,-44.921875
1508291859.4629571,-2.9296875,27.83203125,5.859375,64.453125,1.46484375
1508291859.4668634,2.44140625,21.97265625,18.06640625,82.51953125,20.01953125
1508291859.4707696,-0.9765625,24.90234375,18.06640625,68.359375,-11.71875
1508291859.474676,-11.23046875,26.3671875,10.25390625,58.59375,10.25390625
1508291859.4785821,-9.27734375,20.5078125,2.9296875,62.5,15.13671875
1508291859.4824884,5.37109375,21.484375,10.25390625,67.87109375,-37.109375
1508291859.4863946,7.32421875,26.3671875,19.04296875,79.58984375,-18.5546875
1508291859.490301,-2.9296875,22.94921875,8.7890625,72.265625,36.1328125
1508291859.4942071,-3.41796875,20.99609375,2.44140625,61.03515625,25.87890625
1508291859.4981134,18.06640625,24.90234375,7.32421875,83.984375,23.4375
1508291859.5020196,1.953125,23.92578125,6.34765625,81.0546875,26.3671875
1508291859.504103,-20.5078125,21.484375,0.48828125,55.6640625,18.5546875
1508291859.5080092,-20.5078125,21.484375,-2.9296875,53.7109375,10.25390625
1508291859.5119154,-12.20703125,26.3671875,1.953125,65.91796875,20.99609375
1508291859.5158217,-3.41796875,25.87890625,7.32421875,76.66015625,19.53125
1508291859.519728,3.41796875,22.4609375,-1.46484375,78.125,32.2265625
1508291859.5236342,-4.39453125,28.3203125,-11.23046875,74.70703125,53.7109375
1508291859.5275404,-7.32421875,31.73828125,-17.578125,73.2421875,-2.9296875
1508291859.5314467,11.71875,30.76171875,-10.25390625,82.51953125,-18.5546875
1508291859.535353,5.859375,32.71484375,-7.8125,80.078125,-6.8359375
1508291859.5392592,-15.13671875,28.80859375,-11.71875,60.05859375,-32.71484375
1508291859.5431654,-25.390625,27.34375,3.90625,53.22265625,-25.87890625
1508291859.5470717,-8.30078125,28.3203125,3.90625,62.98828125,-4.39453125
1508291859.5491352,1.953125,24.4140625,-4.8828125,72.265625,-6.34765625
1508291859.5530415,-8.30078125,28.3203125,-9.27734375,64.94140625,18.5546875
1508291859.5569477,-6.8359375,31.25,-9.27734375,62.01171875,20.01953125
1508291859.560854,6.8359375,28.3203125,-7.8125,72.265625,-14.16015625
1508291859.5647602,22.94921875,29.296875,-4.8828125,73.73046875,-26.3671875
1508291859.5686665,18.06640625,27.83203125,-4.39453125,77.1484375,-7.32421875
1508291859.5725727,4.39453125,23.4375,-5.859375,78.125,-5.859375
1508291859.576479,-0.48828125,22.94921875,6.8359375,77.63671875,-27.34375
1508291859.5803852,-1.953125,21.97265625,5.37109375,76.171875,-6.34765625
1508291859.5842915,-5.859375,22.4609375,5.37109375,78.61328125,20.99609375
1508291859.5881977,-12.20703125,21.484375,20.01953125,82.03125,26.3671875
1508291859.592104,-9.765625,20.99609375,18.5546875,76.66015625,-0.9765625
1508291859.5941541,-0.48828125,21.97265625,17.08984375,73.2421875,13.18359375
1508291859.5980604,-2.9296875,24.90234375,12.6953125,68.359375,39.0625
1508291859.6019666,-6.8359375,27.34375,5.859375,68.359375,34.66796875
1508291859.6058729,-9.27734375,28.3203125,-7.32421875,62.01171875,36.62109375
1508291859.6097791,-1.46484375,30.76171875,-5.859375,62.98828125,7.8125
1508291859.6136854,14.16015625,30.76171875,4.39453125,68.359375,-2.9296875
1508291859.6175916,10.7421875,26.85546875,12.6953125,64.453125,15.625
1508291859.6214979,-4.8828125,23.92578125,11.23046875,62.5,30.2734375
1508291859.6254041,0.0,22.4609375,11.23046875,58.59375,24.90234375
1508291859.6293104,4.39453125,17.578125,31.25,60.546875,18.06640625
1508291859.6332166,3.41796875,17.578125,25.87890625,63.4765625,49.8046875
1508291859.6371229,-0.9765625,23.4375,6.34765625,46.875,49.31640625
1508291859.6391804,-6.34765625,26.3671875,4.8828125,43.45703125,40.52734375
1508291859.6430867,-4.8828125,23.92578125,15.13671875,61.03515625,85.44921875
1508291859.646993,-3.41796875,22.94921875,7.32421875,62.01171875,55.6640625
1508291859.6508992,3.90625,22.4609375,2.9296875,53.22265625,38.57421875
1508291859.6548054,19.04296875,21.484375,3.90625,68.84765625,79.1015625
1508291859.6587117,10.25390625,20.01953125,0.48828125,66.89453125,30.2734375
1508291859.662618,-37.59765625,18.06640625,4.8828125,19.04296875,-6.34765625
1508291859.6665242,-71.2890625,19.53125,-2.9296875,-25.390625,-17.578125
1508291859.6704304,-84.47265625,18.5546875,-7.8125,-52.734375,-2.9296875
1508291859.6743367,-86.42578125,14.6484375,-3.90625,-53.7109375,71.77734375
1508291859.678243,-105.46875,16.6015625,-10.7421875,-70.3125,63.96484375
1508291859.6821492,-147.94921875,15.13671875,-14.6484375,-108.3984375,-1.46484375
1508291859.6842105,-155.76171875,15.625,-11.23046875,-114.74609375,-2.9296875
1508291859.6881168,-151.85546875,20.5078125,-14.16015625,-111.81640625,13.671875
1508291859.692023,-160.15625,17.08984375,-17.578125,-120.60546875,-13.18359375
1508291859.6959293,-150.390625,19.04296875,-10.7421875,-118.1640625,13.671875
1508291859.6998355,-155.76171875,28.3203125,-12.20703125,-125.0,54.6875
1508291859.7037418,-149.4140625,32.2265625,-20.01953125,-115.234375,18.06640625
1508291859.707648,-125.9765625,32.71484375,-23.92578125,-108.88671875,0.48828125
1508291859.7115543,-122.55859375,33.203125,-21.484375,-120.60546875,-32.2265625
1508291859.7154605,-117.67578125,32.2265625,-3.41796875,-112.79296875,-8.7890625
1508291859.7193668,-107.421875,31.25,-7.32421875,-100.09765625,-3.41796875
1508291859.723273,-93.26171875,25.87890625,-8.30078125,-83.0078125,1.953125
1508291859.7271793,-73.73046875,24.4140625,-6.8359375,-72.75390625,34.66796875
1508291859.7292426,-66.40625,29.296875,-15.625,-76.171875,9.765625
1508291859.7331488,-67.87109375,29.78515625,-14.16015625,-66.89453125,2.9296875
1508291859.737055,-55.17578125,27.34375,-6.8359375,-49.31640625,16.6015625
1508291859.7409613,-42.48046875,26.85546875,-4.8828125,-34.66796875,-5.37109375
1508291859.7448676,-42.96875,23.92578125,-3.90625,-32.2265625,-36.1328125
1508291859.7487738,-52.734375,21.97265625,-11.23046875,-35.64453125,-37.59765625
1508291859.75268,-42.48046875,20.99609375,-15.13671875,-26.3671875,-25.87890625
1508291859.7565863,-26.85546875,22.4609375,-4.39453125,-21.97265625,-25.390625
1508291859.7604926,-34.66796875,26.3671875,5.859375,-22.94921875,-1.953125
1508291859.7643988,-47.36328125,30.76171875,-3.41796875,-33.69140625,-8.7890625
1508291859.768305,-50.78125,31.73828125,-1.953125,-29.78515625,-13.671875
1508291859.7722113,-34.1796875,30.76171875,11.71875,-10.7421875,5.859375
1508291859.7742765,-15.13671875,32.2265625,14.6484375,-10.7421875,-1.953125
1508291859.7781827,-19.53125,32.2265625,8.30078125,-16.6015625,-23.92578125
1508291859.782089,-26.85546875,31.25,3.90625,-13.18359375,4.39453125
1508291859.7859952,-16.11328125,30.76171875,4.39453125,-1.46484375,-4.39453125
1508291859.7899015,-5.859375,26.3671875,3.90625,8.30078125,-35.64453125
1508291859.7938077,-18.5546875,21.97265625,-8.7890625,2.44140625,-20.01953125
1508291859.797714,-35.15625,27.34375,-14.6484375,-16.11328125,-6.8359375
1508291859.8016202,-24.90234375,28.80859375,5.37109375,-9.27734375,41.9921875
1508291859.8055265,-16.6015625,28.80859375,0.9765625,6.34765625,23.92578125
1508291859.8094327,-16.6015625,28.80859375,-4.39453125,1.46484375,0.0
1508291859.813339,-25.87890625,24.90234375,3.41796875,0.48828125,10.7421875
1508291859.8172452,-19.04296875,27.34375,9.765625,12.20703125,17.08984375
1508291859.8343196,0.0,28.3203125,14.6484375,17.08984375,36.62109375
1508291859.8382258,-0.9765625,27.83203125,7.32421875,9.765625,22.4609375
1508291859.842132,-5.859375,30.2734375,0.0,1.953125,7.32421875
1508291859.8460383,-3.90625,30.2734375,1.46484375,4.39453125,-19.04296875
1508291859.8499446,-2.9296875,24.90234375,4.8828125,18.06640625,-18.5546875
1508291859.8538508,0.0,24.90234375,3.41796875,24.4140625,52.734375
1508291859.857757,-6.8359375,25.87890625,12.20703125,20.99609375,28.3203125
1508291859.8616633,-9.765625,26.85546875,18.5546875,21.97265625,8.30078125
1508291859.8655696,3.90625,29.296875,11.71875,32.71484375,7.8125
1508291859.8694758,6.8359375,31.73828125,8.7890625,23.4375,22.94921875
1508291859.873382,-2.9296875,34.1796875,16.11328125,12.20703125,65.91796875
1508291859.8772883,-15.13671875,33.69140625,17.08984375,18.06640625,67.3828125
1508291859.8793516,-10.25390625,35.64453125,14.6484375,27.34375,53.7109375
1508291859.8832579,0.9765625,37.59765625,15.13671875,31.25,29.296875
1508291859.887164,-4.39453125,34.66796875,16.6015625,36.1328125,21.97265625
1508291859.8910704,-10.7421875,37.109375,20.99609375,25.390625,19.53125
1508291859.8949766,5.859375,39.0625,15.13671875,22.4609375,-29.78515625
1508291859.8988829,9.765625,32.2265625,6.34765625,32.71484375,-42.96875
1508291859.902789,4.8828125,30.2734375,13.18359375,32.71484375,7.8125
1508291859.9066954,-5.859375,27.83203125,18.5546875,27.34375,7.32421875
1508291859.9106016,-15.13671875,31.25,6.8359375,15.625,-18.5546875
1508291859.9145079,-4.39453125,34.1796875,7.32421875,17.578125,-6.34765625
1508291859.918414,-3.41796875,32.2265625,19.04296875,37.59765625,3.90625
1508291859.9223204,-5.37109375,27.83203125,9.765625,36.1328125,-40.52734375
1508291859.9238834,-3.90625,25.390625,12.20703125,25.87890625,29.296875
1508291859.9277897,3.41796875,24.4140625,21.484375,27.83203125,56.15234375
1508291859.931696,4.8828125,24.4140625,20.99609375,26.85546875,-10.25390625
1508291859.9356022,2.9296875,29.296875,11.71875,14.16015625,3.41796875
1508291859.9395084,2.9296875,26.85546875,1.46484375,4.8828125,-26.3671875
1508291859.9434147,-0.48828125,28.80859375,5.859375,10.7421875,-21.97265625
1508291859.947321,0.9765625,30.2734375,4.8828125,13.671875,55.6640625
1508291859.9512272,-0.48828125,23.4375,2.9296875,19.53125,50.29296875
1508291859.9551334,-11.23046875,20.99609375,-2.44140625,16.6015625,-10.25390625
1508291859.9590397,-6.8359375,25.87890625,5.37109375,18.06640625,-9.27734375
1508291859.962946,1.46484375,30.76171875,18.5546875,40.0390625,36.62109375
1508291859.9668522,4.39453125,32.71484375,9.27734375,40.52734375,16.11328125
1508291859.9689145,0.48828125,37.59765625,5.37109375,31.25,41.50390625
1508291859.9728208,1.46484375,37.59765625,3.41796875,25.87890625,42.96875
1508291859.976727,10.7421875,34.66796875,-1.953125,34.66796875,20.99609375
1508291859.9806333,4.39453125,30.76171875,-0.9765625,41.50390625,47.36328125
1508291859.9845395,-9.27734375,25.87890625,8.30078125,38.57421875,51.26953125
1508291859.9884458,-12.6953125,22.4609375,18.06640625,36.1328125,28.80859375
1508291859.992352,4.8828125,20.99609375,27.34375,46.38671875,31.73828125
1508291859.9962583,8.30078125,26.3671875,26.3671875,50.78125,47.36328125
1508291860.0001645,4.39453125,30.2734375,22.4609375,39.0625,58.10546875
1508291860.0040708,-6.34765625,26.85546875,36.62109375,33.69140625,53.22265625
1508291860.007977,-3.41796875,24.4140625,33.69140625,47.8515625,31.73828125
1508291860.0118833,12.20703125,26.85546875,25.87890625,55.6640625,45.41015625
1508291860.0139446,3.90625,24.4140625,27.83203125,51.26953125,50.78125
1508291860.0178509,-8.30078125,21.484375,18.5546875,39.55078125,44.43359375
1508291860.0217571,-1.953125,22.4609375,14.16015625,38.0859375,53.22265625
1508291860.0256634,2.9296875,20.01953125,28.3203125,46.38671875,72.265625
1508291860.0295696,8.7890625,19.04296875,30.2734375,43.9453125,69.82421875
1508291860.0334759,9.765625,23.4375,16.6015625,36.1328125,41.50390625
1508291860.0373821,0.48828125,26.3671875,16.11328125,37.109375,34.1796875
1508291860.0412884,-1.46484375,26.85546875,7.32421875,39.0625,32.2265625
1508291860.0451946,6.8359375,27.34375,10.25390625,44.43359375,18.5546875
1508291860.0491009,4.8828125,26.3671875,23.92578125,39.55078125,30.76171875
1508291860.0530071,-8.7890625,25.390625,18.06640625,27.83203125,10.7421875
1508291860.0569134,1.953125,24.90234375,29.78515625,37.59765625,18.5546875
1508291860.0589983,13.671875,20.01953125,49.8046875,48.33984375,69.82421875
1508291860.0629046,0.9765625,16.11328125,47.8515625,44.43359375,70.3125
1508291860.0668108,-14.6484375,21.97265625,28.80859375,22.94921875,67.87109375
1508291860.070717,-1.46484375,26.85546875,20.99609375,26.3671875,40.52734375
1508291860.0746233,16.11328125,22.94921875,34.1796875,37.109375,53.22265625
1508291860.0785296,10.25390625,24.4140625,36.1328125,38.57421875,54.19921875
1508291860.0824358,2.44140625,30.2734375,24.90234375,29.296875,10.7421875
1508291860.086342,0.0,28.80859375,30.76171875,22.94921875,39.55078125
1508291860.0902483,6.34765625,25.390625,52.734375,37.109375,76.171875
1508291860.0941546,13.671875,24.90234375,55.6640625,42.96875,67.3828125
1508291860.0980608,0.48828125,23.4375,45.8984375,27.34375,25.390625
1508291860.101967,-11.23046875,22.94921875,35.15625,18.5546875,10.25390625
1508291860.104029,-2.44140625,23.4375,36.62109375,33.69140625,7.8125
1508291860.1079352,3.41796875,22.94921875,37.59765625,46.875,12.20703125
1508291860.1118414,4.8828125,27.83203125,26.85546875,41.015625,32.71484375
1508291860.1157477,1.46484375,26.85546875,22.4609375,35.64453125,27.83203125
1508291860.119654,-6.8359375,20.99609375,26.3671875,31.73828125,3.90625
1508291860.1235602,-15.13671875,20.01953125,23.4375,31.73828125,15.13671875
1508291860.1274664,-9.27734375,20.5078125,15.625,24.90234375,-1.46484375
1508291860.1313727,-11.71875,22.94921875,23.4375,3.90625,4.39453125
1508291860.135279,-11.23046875,22.4609375,33.203125,18.06640625,43.9453125
1508291860.1391852,-0.48828125,19.04296875,26.3671875,30.2734375,26.85546875
1508291860.1430914,-8.30078125,15.13671875,23.92578125,21.97265625,8.7890625
1508291860.1469977,-19.53125,17.578125,25.87890625,11.23046875,30.2734375
1508291860.1490626,-20.01953125,18.5546875,25.87890625,8.30078125,49.31640625
1508291860.152969,-0.48828125,15.625,17.578125,23.92578125,32.2265625
1508291860.1568751,6.8359375,18.06640625,20.5078125,31.25,30.2734375
1508291860.1607814,2.9296875,22.94921875,28.80859375,24.4140625,4.8828125
1508291860.1646876,5.859375,24.4140625,27.34375,26.3671875,18.5546875
1508291860.168594,8.7890625,19.04296875,25.390625,36.1328125,24.90234375
1508291860.1725001,13.671875,20.99609375,28.3203125,26.85546875,19.53125
1508291860.1764064,4.8828125,26.3671875,35.15625,21.484375,20.99609375
1508291860.1803126,-6.34765625,24.4140625,28.3203125,23.4375,-33.203125
1508291860.184219,4.39453125,22.94921875,25.390625,28.80859375,-14.6484375
1508291860.1881251,15.13671875,20.5078125,29.78515625,37.109375,41.50390625
1508291860.1920314,13.18359375,16.11328125,29.78515625,33.69140625,31.25
1508291860.2091315,5.37109375,16.11328125,21.484375,29.296875,23.92578125
1508291860.2130377,7.32421875,16.6015625,18.06640625,26.3671875,32.71484375
1508291860.216944,16.11328125,14.6484375,24.4140625,27.83203125,32.71484375
1508291860.2208502,14.16015625,14.16015625,24.90234375,27.34375,34.66796875
1508291860.2247565,2.9296875,15.625,19.04296875,15.625,11.23046875
1508291860.2286627,-2.9296875,18.06640625,22.94921875,25.390625,5.37109375
1508291860.232569,6.34765625,16.6015625,24.4140625,40.0390625,24.4140625
1508291860.2364752,12.6953125,17.578125,28.3203125,36.1328125,22.94921875
1508291860.2403815,9.27734375,20.01953125,28.3203125,34.66796875,34.66796875
1508291860.2442877,2.44140625,22.4609375,13.671875,28.80859375,30.2734375
1508291860.248194,3.90625,26.3671875,24.4140625,26.3671875,12.20703125
1508291860.2521002,7.32421875,23.92578125,35.64453125,32.71484375,44.921875
1508291860.254138,6.8359375,22.94921875,29.78515625,30.76171875,33.203125
1508291860.2580442,-0.48828125,28.3203125,28.80859375,13.18359375,1.46484375
1508291860.2619505,4.8828125,32.71484375,36.1328125,12.20703125,12.20703125
1508291860.2658567,15.13671875,32.71484375,41.9921875,29.78515625,20.5078125
1508291860.269763,14.6484375,32.71484375,29.78515625,23.4375,6.34765625
1508291860.2736692,3.90625,29.78515625,13.671875,3.90625,-0.48828125
1508291860.2775755,-1.953125,27.34375,13.18359375,2.9296875,-8.7890625
1508291860.2814817,7.8125,29.78515625,21.97265625,14.16015625,18.5546875
1508291860.285388,5.37109375,27.34375,19.53125,11.71875,59.5703125
1508291860.2892942,-9.27734375,22.4609375,11.23046875,-5.859375,29.296875
1508291860.2932005,-12.20703125,22.94921875,18.5546875,1.953125,32.71484375
1508291860.2971067,4.39453125,24.90234375,16.6015625,20.01953125,57.6171875
1508291860.2991674,16.6015625,24.90234375,7.8125,21.97265625,62.5
1508291860.3030736,2.44140625,26.3671875,11.71875,15.625,52.734375
1508291860.30698,-6.8359375,28.80859375,11.71875,5.37109375,18.06640625
1508291860.3108861,4.8828125,25.390625,2.44140625,8.30078125,18.5546875
1508291860.3147924,12.6953125,25.87890625,-4.39453125,9.27734375,19.53125
1508291860.3186986,2.9296875,28.80859375,-4.8828125,3.90625,27.34375
1508291860.322605,-3.41796875,24.4140625,4.8828125,-0.48828125,-1.953125
1508291860.3265111,1.953125,22.94921875,14.6484375,10.25390625,3.41796875
1508291860.3304174,11.23046875,23.4375,8.30078125,15.625,4.39453125
1508291860.3343236,11.23046875,21.97265625,8.30078125,17.08984375,-40.0390625
1508291860.33823,8.30078125,21.484375,19.04296875,25.87890625,-43.9453125
1508291860.3421361,8.30078125,20.99609375,16.11328125,31.25,-30.2734375
1508291860.3443403,15.625,22.94921875,11.23046875,39.55078125,2.9296875
1508291860.3482466,14.16015625,23.4375,8.7890625,43.45703125,20.99609375
1508291860.3521528,5.37109375,22.4609375,3.90625,41.015625,21.97265625
1508291860.356059,-4.39453125,21.484375,-9.27734375,41.015625,-6.34765625
1508291860.3599653,0.9765625,24.90234375,-8.30078125,56.640625,-6.8359375
1508291860.3638716,9.27734375,29.78515625,-1.953125,62.01171875,-10.7421875
1508291860.3677778,-1.953125,30.76171875,7.8125,52.734375,30.2734375
1508291860.371684,-17.08984375,31.73828125,5.859375,43.45703125,17.08984375
1508291860.3755903,-5.859375,31.25,2.9296875,41.9921875,-39.0625
1508291860.3794966,5.37109375,28.80859375,23.4375,54.6875,11.71875
1508291860.3834028,-7.8125,27.34375,22.4609375,55.17578125,40.0390625
1508291860.387309,-18.5546875,31.25,9.765625,39.55078125,34.1796875
1508291860.3893685,-15.13671875,32.2265625,6.34765625,37.59765625,41.9921875
1508291860.3932748,2.44140625,33.69140625,4.8828125,50.29296875,36.1328125
1508291860.397181,4.39453125,34.1796875,2.9296875,55.17578125,58.10546875
1508291860.4010873,-7.32421875,32.71484375,5.859375,50.78125,60.05859375
1508291860.4049935,-7.32421875,35.64453125,8.7890625,49.31640625,50.78125
1508291860.4088998,2.44140625,36.62109375,11.23046875,51.7578125,42.48046875
1508291860.412806,8.7890625,31.25,21.97265625,49.8046875,35.15625
1508291860.4167123,-8.7890625,25.390625,12.20703125,36.62109375,19.53125
1508291860.4206185,-22.4609375,28.3203125,13.671875,31.25,-16.11328125
1508291860.4245248,-7.8125,29.296875,30.2734375,50.78125,-12.20703125
1508291860.428431,-4.8828125,25.87890625,16.11328125,53.7109375,20.5078125
1508291860.4323373,-1.953125,27.83203125,4.39453125,45.8984375,36.1328125
1508291860.4339025,-4.8828125,30.76171875,13.671875,39.55078125,49.8046875
1508291860.4378088,0.9765625,38.0859375,18.5546875,46.38671875,76.171875
1508291860.441715,10.25390625,40.52734375,10.7421875,56.640625,33.69140625
1508291860.4456213,2.44140625,35.64453125,1.46484375,48.828125,-5.859375
1508291860.4495275,-4.8828125,36.1328125,0.0,37.59765625,8.7890625
1508291860.4534338,0.48828125,37.109375,2.9296875,32.71484375,7.8125
1508291860.45734,11.71875,36.62109375,7.8125,35.15625,56.15234375
1508291860.4612463,13.18359375,35.64453125,12.20703125,28.3203125,11.71875
1508291860.4651525,-0.9765625,33.203125,20.01953125,27.34375,-18.06640625
1508291860.4690588,-7.8125,33.203125,18.06640625,36.1328125,49.31640625
1508291860.472965,4.8828125,32.2265625,14.6484375,44.43359375,38.0859375
1508291860.4768713,9.765625,24.90234375,20.5078125,41.50390625,-3.90625
1508291860.4789324,5.859375,24.4140625,25.390625,32.71484375,-14.16015625
1508291860.4828386,-0.9765625,28.80859375,21.97265625,27.83203125,-7.32421875
1508291860.4867449,2.9296875,32.2265625,20.01953125,35.15625,18.5546875
1508291860.4906511,10.7421875,32.2265625,21.484375,41.50390625,20.5078125
1508291860.4945574,4.39453125,30.2734375,23.4375,37.59765625,-1.953125
1508291860.4984636,-9.765625,30.76171875,19.04296875,33.203125,-0.48828125
1508291860.5023699,3.41796875,28.80859375,8.30078125,33.69140625,8.30078125
1508291860.5062761,18.06640625,26.85546875,11.71875,37.59765625,2.44140625
1508291860.5101824,14.6484375,24.90234375,23.92578125,43.9453125,18.5546875
1508291860.5140886,4.39453125,21.484375,20.99609375,34.1796875,24.4140625
1508291860.5179949,-4.8828125,20.99609375,18.5546875,25.87890625,20.5078125
1508291860.5219011,3.90625,25.390625,31.73828125,32.2265625,32.2265625
1508291860.5244644,11.71875,24.90234375,34.1796875,34.1796875,-3.41796875
1508291860.5283706,6.8359375,24.4140625,20.5078125,25.390625,-20.99609375
1508291860.5322769,-4.39453125,28.80859375,19.53125,20.01953125,-30.76171875
1508291860.536183,1.953125,28.3203125,32.2265625,30.76171875,-57.12890625
1508291860.5400894,11.23046875,25.87890625,33.69140625,34.1796875,-34.66796875
1508291860.5439956,3.41796875,28.3203125,20.99609375,19.04296875,-1.46484375
1508291860.5479019,-4.8828125,29.296875,20.99609375,4.39453125,-16.6015625
1508291860.551808,2.9296875,26.85546875,41.015625,18.5546875,0.48828125
1508291860.5557144,15.625,27.83203125,29.296875,29.78515625,-19.04296875
1508291860.5596206,8.30078125,30.2734375,15.13671875,22.94921875,-30.76171875
1508291860.5635269,-4.39453125,33.203125,21.97265625,16.11328125,3.90625
1508291860.567433,5.859375,36.62109375,23.92578125,20.01953125,-5.37109375
1508291860.5842576,15.13671875,36.62109375,27.34375,26.3671875,-2.44140625
1508291860.5881639,12.20703125,33.203125,24.4140625,14.16015625,35.64453125
1508291860.59207,-4.39453125,33.69140625,29.296875,1.953125,40.52734375
1508291860.5959764,-10.7421875,35.64453125,34.1796875,-4.8828125,8.30078125
1508291860.5998826,3.90625,36.1328125,30.2734375,0.0,-9.27734375
1508291860.6037889,7.32421875,32.71484375,29.78515625,1.953125,-17.578125
1508291860.607695,-5.37109375,26.3671875,27.83203125,-9.765625,-40.52734375
1508291860.6116014,-13.18359375,25.87890625,24.90234375,-12.20703125,-17.08984375
1508291860.6155076,0.9765625,28.3203125,26.85546875,2.44140625,-15.13671875
1508291860.6194139,6.34765625,31.25,21.484375,0.9765625,-60.546875
1508291860.62332,-6.34765625,32.2265625,21.484375,-9.765625,-27.34375
1508291860.6272264,-11.71875,30.2734375,16.11328125,-12.20703125,-22.4609375
1508291860.6292899,-9.765625,27.83203125,12.20703125,-9.765625,-15.13671875
1508291860.633196,-2.44140625,28.3203125,23.4375,3.41796875,1.953125
1508291860.6371024,3.41796875,27.34375,23.92578125,5.37109375,-27.83203125
1508291860.6410086,-5.859375,25.390625,12.20703125,-3.41796875,-39.0625
1508291860.6449149,-9.765625,29.78515625,2.44140625,2.44140625,-48.33984375
1508291860.648821,0.9765625,30.76171875,0.48828125,10.7421875,-3.90625
1508291860.6527274,5.37109375,32.2265625,2.44140625,13.18359375,22.4609375
1508291860.6566336,-6.34765625,34.66796875,7.8125,8.30078125,16.6015625
1508291860.6605399,-11.23046875,36.1328125,1.46484375,8.30078125,11.23046875
1508291860.664446,2.44140625,33.203125,1.953125,13.18359375,-18.06640625
1508291860.6683524,12.6953125,28.80859375,20.99609375,15.625,-6.8359375
1508291860.6722586,4.8828125,29.296875,20.99609375,13.671875,39.0625
1508291860.6739209,-2.9296875,30.76171875,11.23046875,1.953125,38.0859375
1508291860.6778271,4.39453125,29.78515625,8.30078125,7.32421875,8.30078125
1508291860.6817334,7.32421875,26.85546875,7.8125,15.13671875,-19.04296875
1508291860.6856396,-1.953125,28.3203125,5.37109375,5.859375,-34.1796875
1508291860.6895459,-13.18359375,28.80859375,1.46484375,-3.90625,6.8359375
1508291860.6934521,-0.9765625,25.390625,0.0,-1.953125,16.11328125
1508291860.6973584,8.7890625,24.90234375,12.6953125,6.8359375,4.8828125
1508291860.7012646,8.7890625,26.3671875,29.78515625,20.01953125,23.92578125
1508291860.7051709,4.39453125,22.4609375,24.4140625,27.34375,7.8125
1508291860.7090771,4.8828125,18.5546875,25.87890625,27.83203125,0.9765625
1508291860.7129834,11.71875,23.4375,40.52734375,37.109375,20.5078125
1508291860.7168896,10.25390625,26.85546875,30.2734375,33.203125,17.08984375
1508291860.7189531,-4.39453125,28.80859375,25.390625,27.83203125,3.41796875
1508291860.7228594,-11.23046875,29.78515625,28.80859375,32.71484375,5.37109375
1508291860.7267656,2.44140625,27.34375,30.76171875,40.0390625,10.25390625
1508291860.730672,6.34765625,27.34375,24.90234375,30.2734375,-5.37109375
1508291860.7345781,1.953125,28.3203125,24.90234375,19.04296875,-12.6953125
1508291860.7384844,-10.7421875,28.3203125,32.71484375,13.671875,2.44140625
1508291860.7423906,-8.30078125,28.3203125,29.296875,20.99609375,-4.39453125
1508291860.746297,1.953125,27.34375,20.01953125,25.87890625,-1.46484375
1508291860.7502031,-3.90625,25.87890625,21.484375,19.04296875,7.32421875
1508291860.7541094,-6.34765625,28.80859375,32.2265625,15.13671875,7.32421875
1508291860.7580156,3.41796875,30.2734375,33.203125,26.3671875,-5.37109375
1508291860.761922,15.13671875,27.83203125,25.87890625,32.71484375,-8.30078125
1508291860.763987,12.6953125,27.34375,27.34375,19.53125,16.11328125
1508291860.7678933,4.39453125,27.83203125,40.0390625,19.53125,10.7421875
1508291860.7717996,0.48828125,24.90234375,43.45703125,18.5546875,10.7421875
1508291860.7757058,9.27734375,28.3203125,41.50390625,19.04296875,-4.8828125
1508291860.779612,14.16015625,33.203125,38.57421875,27.83203125,-12.20703125
1508291860.7835183,0.0,34.66796875,28.80859375,24.90234375,5.37109375
1508291860.7874246,-6.34765625,32.71484375,20.99609375,17.08984375,8.30078125
1508291860.7913308,0.0,27.83203125,24.90234375,20.5078125,-17.578125
1508291860.795237,5.859375,27.34375,31.73828125,20.5078125,-5.37109375
1508291860.7991433,5.37109375,28.3203125,38.0859375,19.53125,12.20703125
1508291860.8030496,-8.30078125,27.83203125,28.3203125,12.20703125,-23.92578125
1508291860.8069558,-5.859375,21.97265625,23.4375,15.625,-14.16015625
1508291860.8090498,0.0,21.484375,33.69140625,24.4140625,18.5546875
1508291860.812956,-2.9296875,20.5078125,36.62109375,20.99609375,25.390625
1508291860.8168623,-8.30078125,16.11328125,16.6015625,8.30078125,7.32421875
1508291860.8207686,-7.32421875,19.53125,5.859375,12.20703125,27.34375
1508291860.8246748,0.48828125,25.390625,20.99609375,30.2734375,45.8984375
1508291860.828581,2.44140625,21.97265625,13.18359375,26.85546875,-2.9296875
1508291860.8324873,-9.765625,17.08984375,-0.48828125,7.32421875,3.41796875
1508291860.8363936,-15.13671875,20.01953125,7.8125,2.44140625,20.99609375
1508291860.8402998,-0.48828125,20.99609375,26.85546875,19.04296875,-7.32421875
1508291860.844206,-2.9296875,17.578125,32.2265625,27.83203125,24.90234375
1508291860.8481123,-0.48828125,20.5078125,22.4609375,18.06640625,29.78515625
1508291860.8520186,-0.48828125,24.90234375,15.13671875,6.8359375,-1.46484375
1508291860.8540516,0.9765625,26.85546875,20.99609375,15.625,-9.765625
1508291860.8579578,-1.46484375,26.3671875,23.92578125,17.08984375,-15.625
1508291860.861864,-4.8828125,23.92578125,21.97265625,14.6484375,2.9296875
1508291860.8657703,-9.765625,18.06640625,23.4375,17.578125,4.8828125
1508291860.8696766,-9.765625,18.06640625,20.01953125,19.04296875,-16.11328125
1508291860.8735828,7.32421875,23.4375,13.671875,26.85546875,-31.25
1508291860.877489,9.765625,25.87890625,3.41796875,20.01953125,-58.59375
1508291860.8813953,-7.32421875,26.3671875,7.32421875,8.7890625,-57.6171875
1508291860.8853016,-7.32421875,25.390625,19.04296875,22.94921875,-40.0390625
1508291860.8892078,1.46484375,24.90234375,13.18359375,33.69140625,-25.87890625
1508291860.893114,-3.41796875,22.94921875,10.7421875,23.4375,11.71875
1508291860.8970203,-8.30078125,22.94921875,11.23046875,15.625,13.671875
1508291860.899083,-10.25390625,20.5078125,18.5546875,22.4609375,-1.46484375
1508291860.9029891,-3.41796875,18.5546875,21.97265625,30.76171875,17.08984375
1508291860.9068954,0.9765625,22.94921875,23.92578125,33.203125,46.875
1508291860.9108016,0.0,27.83203125,25.87890625,27.34375,31.25
1508291860.914708,2.9296875,31.25,22.4609375,26.85546875,18.5546875
1508291860.9186141,2.44140625,29.78515625,11.23046875,33.203125,10.7421875
1508291860.9225204,-4.39453125,27.34375,12.6953125,26.3671875,-18.06640625
1508291860.9264266,-8.30078125,23.4375,35.15625,26.85546875,18.06640625
1508291860.930333,-15.13671875,21.97265625,34.1796875,24.90234375,8.7890625
1508291860.9342391,-11.71875,22.4609375,28.80859375,32.2265625,-39.0625
1508291860.9381454,-10.7421875,19.53125,26.85546875,43.45703125,-11.71875
1508291860.9420516,-5.859375,21.484375,27.34375,38.57421875,-6.8359375
1508291860.9591246,-6.8359375,29.78515625,25.87890625,32.71484375,-26.3671875
1508291860.9630308,-20.01953125,31.73828125,22.4609375,24.90234375,-27.83203125
1508291860.966937,-10.7421875,27.83203125,25.390625,25.87890625,-10.25390625
1508291860.9708433,-5.37109375,28.80859375,23.92578125,28.3203125,3.41796875
1508291860.9747496,-21.484375,29.296875,16.6015625,17.578125,5.37109375
1508291860.9786558,-20.99609375,25.87890625,11.23046875,14.6484375,21.484375
1508291860.982562,-4.8828125,25.390625,25.87890625,28.80859375,25.87890625
1508291860.9864683,-0.48828125,27.83203125,39.0625,44.921875,52.24609375
1508291860.9903746,0.9765625,28.80859375,37.109375,40.52734375,41.9921875
1508291860.9942808,-3.41796875,28.3203125,37.59765625,20.99609375,-17.578125
1508291860.998187,1.46484375,29.78515625,42.48046875,26.85546875,-21.484375
1508291861.0020933,7.32421875,28.3203125,51.26953125,41.50390625,-4.39453125
1508291861.0041559,0.48828125,28.80859375,47.8515625,40.0390625,-12.20703125
1508291861.0080621,-8.30078125,32.71484375,38.57421875,29.78515625,2.9296875
1508291861.0119684,1.46484375,35.15625,41.9921875,40.52734375,29.78515625
1508291861.0158746,14.16015625,35.64453125,40.0390625,56.640625,56.15234375
1508291861.0197809,12.20703125,35.15625,24.4140625,46.875,30.2734375
1508291861.0236871,0.9765625,32.2265625,18.5546875,32.71484375,14.6484375
1508291861.0275934,0.9765625,28.3203125,25.87890625,27.83203125,37.109375
1508291861.0314996,9.27734375,28.80859375,39.0625,35.15625,58.59375
1508291861.0354059,7.8125,27.34375,42.48046875,41.50390625,42.96875
1508291861.0393121,-5.37109375,20.01953125,35.64453125,29.78515625,11.71875
1508291861.0432184,-13.18359375,20.99609375,40.0390625,28.3203125,9.27734375
1508291861.0471246,7.8125,28.80859375,39.0625,40.52734375,32.71484375
1508291861.0491874,11.71875,32.2265625,38.57421875,36.62109375,42.96875
1508291861.0530937,5.859375,34.66796875,33.203125,31.73828125,23.92578125
1508291861.057,7.32421875,33.203125,22.4609375,27.34375,-18.5546875
1508291861.0609062,4.39453125,28.3203125,23.92578125,27.34375,-43.9453125
1508291861.0648124,10.25390625,27.34375,27.83203125,35.15625,-6.34765625
1508291861.0687187,10.25390625,27.83203125,20.5078125,37.59765625,11.71875
1508291861.072625,0.0,23.4375,23.92578125,28.3203125,10.25390625
1508291861.0765312,4.39453125,24.90234375,36.1328125,31.73828125,43.45703125
1508291861.0804374,15.625,30.2734375,26.85546875,35.64453125,5.37109375
1508291861.0843437,10.7421875,28.80859375,25.87890625,31.25,-20.5078125
1508291861.08825,4.8828125,31.73828125,28.3203125,34.1796875,23.4375
1508291861.0921562,0.48828125,36.1328125,20.01953125,31.73828125,-7.8125
1508291861.0942192,0.9765625,31.73828125,28.3203125,37.59765625,-2.9296875
1508291861.0981255,0.9765625,27.34375,37.59765625,40.0390625,19.04296875
1508291861.1020317,-3.41796875,27.34375,34.1796875,31.25,16.6015625
1508291861.105938,-2.44140625,26.85546875,20.01953125,24.90234375,-6.8359375
1508291861.1098442,6.34765625,25.87890625,18.06640625,33.69140625,-40.52734375
1508291861.1137505,19.04296875,26.3671875,26.3671875,42.48046875,-30.2734375
1508291861.1176567,16.6015625,27.83203125,33.203125,35.15625,1.46484375
1508291861.121563,3.41796875,27.83203125,18.06640625,24.90234375,-6.8359375
1508291861.1254692,2.44140625,28.80859375,8.30078125,22.94921875,-41.015625
1508291861.1293755,3.41796875,25.390625,31.73828125,31.25,-2.44140625
1508291861.1332817,-0.48828125,20.01953125,28.3203125,34.66796875,-8.7890625
1508291861.137188,-10.7421875,22.4609375,10.7421875,25.87890625,-54.19921875
1508291861.1392527,-2.9296875,24.4140625,11.71875,32.2265625,-36.1328125
1508291861.143159,1.953125,22.4609375,16.11328125,43.45703125,23.92578125
1508291861.1470652,1.46484375,25.87890625,12.20703125,41.015625,30.2734375
1508291861.1509714,7.32421875,29.296875,4.39453125,26.85546875,3.41796875
1508291861.1548777,3.41796875,29.78515625,-0.9765625,22.94921875,-13.671875
1508291861.158784,10.25390625,28.80859375,3.90625,36.62109375,-20.99609375
1508291861.1626902,14.16015625,30.2734375,11.71875,41.50390625,-22.4609375
1508291861.1665964,4.8828125,32.71484375,5.37109375,33.69140625,-23.4375
1508291861.1705027,0.0,33.203125,10.25390625,27.83203125,12.20703125
1508291861.174409,12.20703125,31.25,21.484375,45.8984375,9.27734375
1508291861.1783152,20.01953125,30.76171875,8.7890625,51.26953125,8.30078125
1508291861.1822214,7.32421875,29.78515625,0.0,41.015625,51.7578125
1508291861.1842854,-4.8828125,27.83203125,2.9296875,25.87890625,33.69140625
1508291861.1881917,-3.90625,25.390625,12.20703125,26.3671875,13.18359375
1508291861.192098,0.9765625,24.90234375,11.71875,35.15625,9.27734375
1508291861.1960042,-6.8359375,29.78515625,0.9765625,30.2734375,15.625
1508291861.1999104,-14.6484375,27.83203125,-1.46484375,26.85546875,22.4609375
1508291861.2038167,-6.34765625,26.85546875,-7.32421875,31.25,17.08984375
1508291861.207723,1.953125,28.3203125,-2.9296875,41.50390625,35.64453125
1508291861.2116292,0.48828125,27.34375,-1.46484375,28.3203125,56.15234375
1508291861.2155354,-10.25390625,28.3203125,-3.90625,15.625,13.18359375
1508291861.2194417,-8.7890625,28.80859375,-2.44140625,25.390625,-28.3203125
1508291861.223348,6.8359375,29.78515625,-1.953125,32.2265625,1.953125
1508291861.2272542,16.6015625,30.76171875,-2.9296875,37.59765625,34.1796875
1508291861.2293174,13.671875,31.73828125,-10.25390625,40.52734375,41.015625
1508291861.2332237,11.23046875,29.78515625,-18.5546875,42.48046875,7.32421875
1508291861.23713,31.73828125,27.83203125,-14.6484375,58.10546875,0.9765625
1508291861.2410362,30.2734375,30.76171875,-4.39453125,72.265625,37.109375
1508291861.2449424,2.9296875,28.3203125,0.0,59.5703125,3.90625
1508291861.2488487,-19.04296875,25.390625,-4.8828125,38.0859375,11.71875
1508291861.252755,-18.06640625,24.90234375,-15.13671875,32.2265625,-19.04296875
1508291861.2566612,2.44140625,27.34375,-5.37109375,44.43359375,-68.84765625
1508291861.2605674,2.9296875,28.80859375,7.8125,54.19921875,-9.765625
1508291861.2644737,-5.859375,26.85546875,-6.8359375,44.921875,15.625
1508291861.26838,-5.37109375,26.3671875,-11.71875,42.96875,1.46484375
1508291861.2722862,-0.9765625,26.3671875,-3.41796875,48.828125,-3.41796875
1508291861.2743473,-5.859375,24.4140625,-2.9296875,42.48046875,-15.625
1508291861.2782536,-7.8125,26.3671875,3.41796875,38.57421875,-5.859375
1508291861.2821598,-5.859375,23.92578125,8.30078125,36.62109375,34.1796875
1508291861.286066,0.48828125,20.99609375,13.671875,39.0625,44.921875
1508291861.2899723,5.37109375,23.92578125,17.578125,42.48046875,10.7421875
1508291861.2938786,-0.48828125,24.90234375,14.6484375,40.52734375,16.11328125
1508291861.2977848,-9.765625,26.3671875,14.16015625,25.390625,-23.4375
1508291861.301691,0.0,27.34375,38.0859375,34.1796875,-32.71484375
1508291861.3055973,8.7890625,25.87890625,46.875,48.33984375,-7.8125
1508291861.3095036,-2.9296875,24.90234375,35.15625,38.0859375,7.8125
1508291861.3134098,-8.30078125,22.94921875,35.64453125,33.69140625,31.73828125
1508291861.317316,-1.46484375,19.53125,39.55078125,42.96875,37.59765625
1508291861.3338895,8.30078125,20.99609375,44.43359375,49.8046875,44.921875
1508291861.3377957,16.11328125,23.4375,40.0390625,45.8984375,41.015625
1508291861.341702,5.37109375,24.90234375,28.3203125,36.62109375,-6.34765625
1508291861.3456082,-2.9296875,28.80859375,28.80859375,30.2734375,-9.27734375
1508291861.3495145,8.30078125,24.90234375,31.73828125,39.0625,-7.8125
1508291861.3534207,8.7890625,22.4609375,33.69140625,36.1328125,-15.625
1508291861.357327,5.37109375,28.3203125,38.57421875,24.90234375,39.0625
1508291861.3612332,3.90625,27.83203125,37.109375,26.85546875,33.69140625
1508291861.3651395,15.625,29.296875,37.109375,46.38671875,-7.32421875
1508291861.3690457,20.99609375,31.25,23.4375,40.52734375,-40.0390625
1508291861.372952,11.23046875,26.85546875,21.484375,26.3671875,-42.96875
1508291861.3768582,-2.9296875,27.83203125,30.2734375,31.25,-16.6015625
1508291861.3789427,-0.48828125,30.2734375,18.06640625,27.83203125,-15.13671875
1508291861.382849,12.20703125,28.3203125,12.6953125,28.80859375,-4.39453125
1508291861.3867552,9.27734375,21.97265625,14.16015625,35.64453125,15.625
1508291861.3906615,2.9296875,23.92578125,7.32421875,25.390625,3.90625
1508291861.3945677,5.859375,26.85546875,1.46484375,25.87890625,-17.578125
1508291861.398474,14.6484375,28.80859375,0.9765625,41.50390625,5.859375
1508291861.4023802,12.6953125,31.25,-0.48828125,43.45703125,20.01953125
1508291861.4062865,1.46484375,33.69140625,5.859375,36.62109375,24.90234375
1508291861.4101927,-0.48828125,37.59765625,1.953125,32.71484375,32.71484375
1508291861.414099,2.9296875,32.2265625,3.90625,37.109375,27.34375
1508291861.4180052,5.859375,28.3203125,24.4140625,40.0390625,7.32421875
1508291861.4219115,-0.48828125,25.87890625,23.4375,41.50390625,-2.44140625
1508291861.4239538,-6.8359375,25.390625,16.6015625,36.1328125,0.9765625
1508291861.42786,10.7421875,29.296875,19.53125,37.109375,9.765625
1508291861.4317663,19.04296875,28.3203125,18.06640625,44.921875,16.11328125
1508291861.4356725,13.671875,29.296875,13.671875,39.0625,22.4609375
1508291861.4395788,0.48828125,31.25,14.6484375,27.83203125,23.4375
1508291861.443485,-3.90625,28.3203125,19.04296875,28.3203125,-7.32421875
1508291861.4473913,9.765625,26.85546875,21.97265625,34.1796875,-7.32421875
1508291861.4512975,12.20703125,25.390625,18.5546875,33.203125,6.8359375
1508291861.4552038,5.37109375,25.87890625,8.30078125,21.97265625,-21.97265625
1508291861.45911,1.953125,28.80859375,12.6953125,26.85546875,-50.29296875
1508291861.4630163,10.7421875,32.2265625,25.87890625,48.33984375,-19.04296875
1508291861.4669225,18.06640625,34.1796875,16.11328125,48.828125,-4.8828125
1508291861.4689856,4.8828125,34.1796875,11.23046875,38.57421875,4.8828125
1508291861.4728918,-5.859375,33.69140625,19.04296875,29.296875,-12.20703125
1508291861.476798,11.23046875,35.15625,26.85546875,40.52734375,-35.15625
1508291861.4807043,18.06640625,31.25,24.4140625,48.33984375,-40.0390625
1508291861.4846106,4.8828125,25.87890625,24.4140625,40.52734375,-42.96875
1508291861.4885168,0.48828125,30.76171875,29.296875,33.69140625,-21.484375
1508291861.492423,17.08984375,34.1796875,29.78515625,40.0390625,-20.5078125
1508291861.4963293,24.90234375,31.73828125,26.3671875,45.8984375,-38.0859375
1508291861.5002356,7.32421875,32.2265625,27.34375,33.203125,-41.015625
1508291861.5041418,-7.8125,32.71484375,36.62109375,32.2265625,2.44140625
1508291861.508048,-7.32421875,27.34375,38.57421875,44.43359375,7.8125
1508291861.5119543,6.34765625,22.94921875,41.50390625,45.8984375,-26.85546875
1508291861.51402,2.9296875,23.92578125,35.64453125,49.8046875,-5.37109375
1508291861.5179262,-8.7890625,25.87890625,31.73828125,43.45703125,27.83203125
1508291861.5218325,-2.44140625,26.3671875,37.59765625,39.0625,14.16015625
1508291861.5257387,8.30078125,24.90234375,39.0625,44.43359375,4.39453125
1508291861.529645,5.859375,22.94921875,37.109375,40.52734375,5.37109375
1508291861.5335512,-5.37109375,21.97265625,38.57421875,34.1796875,29.296875
1508291861.5374575,-10.7421875,22.94921875,42.48046875,28.3203125,74.70703125
1508291861.5413637,-8.30078125,26.85546875,34.66796875,25.390625,51.26953125
1508291861.54527,-0.9765625,28.80859375,31.25,26.85546875,11.71875
1508291861.5491762,0.9765625,29.296875,34.1796875,33.69140625,31.73828125
1508291861.5530825,-10.7421875,27.83203125,21.484375,32.2265625,28.3203125
1508291861.5569887,-8.30078125,22.4609375,19.53125,31.25,7.8125
1508291861.5740604,8.30078125,23.92578125,25.390625,31.73828125,29.78515625
1508291861.5779667,12.6953125,24.90234375,26.85546875,29.296875,51.7578125
1508291861.581873,1.46484375,21.97265625,21.484375,17.08984375,18.5546875
1508291861.5857792,1.953125,21.97265625,25.87890625,14.16015625,13.671875
1508291861.5896854,8.30078125,22.4609375,40.52734375,23.4375,55.17578125
1508291861.5935917,3.90625,25.390625,42.48046875,21.97265625,48.828125
1508291861.597498,-10.25390625,27.34375,38.57421875,14.16015625,28.80859375
1508291861.6014042,-9.765625,22.94921875,41.015625,15.625,-11.23046875
1508291861.6053104,15.13671875,15.625,54.19921875,39.0625,-13.671875
1508291861.6092167,18.06640625,14.16015625,47.8515625,42.96875,9.765625
1508291861.613123,9.27734375,20.99609375,30.2734375,21.97265625,-7.8125
1508291861.6170292,8.30078125,20.5078125,29.296875,17.578125,-36.1328125
1508291861.6040819,22.4609375,19.53125,44.921875,40.0390625,-11.71875
1508291861.607988,22.94921875,22.94921875,46.875,39.0625,2.9296875
1508291861.6118944,4.8828125,19.53125,41.50390625,20.5078125,11.71875
1508291861.6158006,1.953125,20.5078125,41.9921875,13.18359375,9.27734375
1508291861.6197069,2.9296875,23.92578125,41.50390625,22.94921875,-13.18359375
1508291861.623613,9.27734375,22.94921875,43.45703125,35.64453125,26.85546875
1508291861.6275194,15.13671875,24.4140625,48.828125,28.80859375,15.625
1508291861.6314256,10.25390625,24.4140625,45.8984375,28.80859375,-27.34375
1508291861.6353319,17.578125,26.3671875,40.0390625,39.0625,3.41796875
1508291861.639238,29.296875,28.80859375,38.0859375,46.875,23.4375
1508291861.6431444,29.78515625,27.83203125,24.4140625,36.1328125,-14.6484375
1508291861.6470506,19.53125,24.90234375,36.1328125,22.4609375,-12.6953125
1508291861.6641243,9.765625,21.97265625,57.12890625,20.01953125,-5.37109375
1508291861.6680305,16.6015625,21.484375,48.828125,20.99609375,9.27734375
1508291861.6719368,19.53125,20.5078125,43.45703125,18.5546875,39.55078125
1508291861.675843,9.27734375,18.5546875,40.0390625,13.18359375,45.8984375
1508291861.6797493,0.48828125,19.04296875,25.87890625,11.23046875,43.9453125
1508291861.6836555,8.7890625,19.53125,12.6953125,18.06640625,3.41796875
1508291861.6875618,19.04296875,22.94921875,16.6015625,22.4609375,22.4609375
1508291861.691468,14.16015625,23.92578125,33.69140625,24.4140625,24.90234375
1508291861.6953743,6.34765625,23.92578125,30.76171875,28.80859375,-4.39453125
1508291861.6992805,13.671875,26.3671875,22.94921875,33.69140625,2.9296875
1508291861.7031868,25.390625,24.90234375,35.64453125,39.55078125,17.578125
1508291861.707093,15.625,26.3671875,41.9921875,37.59765625,45.8984375
1508291861.7246692,10.7421875,26.85546875,28.3203125,25.390625,1.953125
1508291861.7285755,5.859375,23.92578125,23.4375,15.13671875,-23.92578125
1508291861.7324817,-1.46484375,21.97265625,24.90234375,16.11328125,22.94921875
1508291861.736388,-1.953125,20.5078125,22.4609375,15.625,58.59375
1508291861.7402942,-5.859375,19.53125,18.06640625,10.7421875,23.92578125
1508291861.7442005,-4.8828125,19.04296875,16.11328125,10.7421875,1.46484375
1508291861.7481067,9.765625,19.53125,16.6015625,21.484375,10.25390625
1508291861.752013,19.04296875,21.97265625,16.6015625,28.80859375,11.71875
1508291861.7559192,13.671875,23.92578125,6.8359375,20.99609375,13.18359375
1508291861.7598255,3.90625,24.90234375,-12.6953125,6.8359375,-32.2265625
1508291861.7637317,18.06640625,23.4375,1.46484375,12.6953125,-20.99609375
1508291861.767638,29.78515625,17.08984375,21.484375,40.0390625,53.7109375
1508291861.754188,15.13671875,20.01953125,9.765625,40.52734375,34.1796875
1508291861.7580943,-3.41796875,28.80859375,-5.37109375,9.765625,3.90625
1508291861.7620006,5.859375,26.3671875,-0.9765625,20.5078125,14.16015625
1508291861.7659068,39.55078125,29.296875,7.8125,58.10546875,6.8359375
1508291861.769813,64.94140625,34.1796875,11.23046875,71.77734375,9.27734375
1508291861.7737193,73.73046875,39.55078125,8.30078125,74.70703125,-18.06640625
1508291861.7776256,81.54296875,44.921875,19.04296875,86.9140625,10.25390625
1508291861.7815318,102.05078125,45.8984375,31.25,109.86328125,23.92578125
1508291861.785438,110.3515625,50.29296875,26.85546875,114.74609375,41.015625
1508291861.7893443,107.421875,51.26953125,24.4140625,114.74609375,69.3359375
1508291861.7932506,108.3984375,47.8515625,20.5078125,119.62890625,40.52734375
1508291861.7971568,116.2109375,43.9453125,19.53125,129.8828125,41.015625
1508291861.79922,120.1171875,41.9921875,16.6015625,135.25390625,-23.4375
1508291861.8031263,111.328125,38.57421875,24.4140625,120.60546875,-48.828125
1508291861.8070326,95.703125,36.1328125,38.57421875,113.76953125,-1.46484375
1508291861.8109388,98.14453125,39.0625,29.296875,125.9765625,-26.85546875
1508291861.814845,107.421875,39.55078125,24.90234375,130.37109375,-20.5078125
1508291861.8187513,101.07421875,39.0625,17.08984375,121.09375,28.80859375
1508291861.8226576,78.61328125,39.55078125,0.9765625,100.09765625,14.6484375
1508291861.8265638,77.1484375,38.57421875,4.39453125,100.09765625,-19.53125
1508291861.83047,86.42578125,36.1328125,5.37109375,104.4921875,-47.8515625
1508291861.8343763,83.49609375,32.71484375,13.671875,94.23828125,-35.64453125
1508291861.8382826,74.70703125,32.2265625,26.85546875,95.21484375,-12.20703125
1508291861.8421888,56.15234375,30.2734375,22.94921875,91.30859375,-28.3203125
1508291861.844252,61.03515625,28.80859375,28.80859375,92.7734375,-9.765625
1508291861.8481584,65.91796875,29.296875,33.69140625,99.609375,31.73828125
1508291861.8520646,55.17578125,31.73828125,25.87890625,92.28515625,14.6484375
1508291861.8559709,43.9453125,34.1796875,18.06640625,76.171875,-13.18359375
1508291861.859877,47.8515625,27.34375,21.97265625,84.9609375,35.15625
1508291861.8637834,55.6640625,26.85546875,20.01953125,87.890625,31.25
1508291861.8676896,46.875,28.80859375,20.5078125,64.453125,34.1796875
1508291861.8715959,27.34375,24.4140625,14.16015625,43.45703125,22.94921875
1508291861.875502,33.69140625,24.90234375,9.765625,46.38671875,5.37109375
1508291861.8794084,40.52734375,26.85546875,25.390625,57.6171875,26.85546875
1508291861.8833146,34.1796875,27.34375,19.04296875,61.5234375,6.34765625
1508291861.8872209,22.4609375,28.3203125,13.671875,54.6875,11.23046875
1508291861.889284,19.53125,27.83203125,21.97265625,53.22265625,12.20703125
1508291861.8931901,38.0859375,29.296875,22.94921875,65.4296875,-20.01953125
1508291861.8970964,37.109375,31.25,25.87890625,55.6640625,27.83203125
1508291861.9010026,23.4375,31.73828125,29.78515625,39.0625,69.3359375
1508291861.904909,11.23046875,30.76171875,20.99609375,41.015625,48.33984375
1508291861.9088151,20.01953125,27.83203125,11.71875,50.78125,33.69140625
1508291861.9127214,30.76171875,29.296875,20.99609375,54.19921875,51.7578125
1508291861.9166276,18.5546875,32.71484375,17.578125,41.015625,59.08203125
1508291861.920534,8.7890625,33.69140625,9.27734375,26.3671875,10.25390625
1508291861.9244401,14.16015625,33.69140625,14.6484375,40.52734375,-16.11328125
1508291861.9283464,16.6015625,32.2265625,14.6484375,45.41015625,18.06640625
1508291861.9322526,14.16015625,28.3203125,20.01953125,29.78515625,41.50390625
1508291861.9343162,7.32421875,26.3671875,24.90234375,21.97265625,38.57421875
1508291861.9382224,7.8125,29.78515625,28.80859375,31.73828125,36.1328125
1508291861.9421287,18.06640625,32.71484375,33.203125,45.41015625,14.16015625
1508291861.946035,18.5546875,33.69140625,26.85546875,45.8984375,2.9296875
1508291861.9499412,15.625,36.62109375,19.53125,42.48046875,9.27734375
1508291861.9538474,10.25390625,37.109375,18.5546875,41.9921875,4.39453125
1508291861.9577537,19.53125,31.73828125,21.97265625,47.8515625,0.0
1508291861.96166,21.97265625,28.3203125,23.4375,45.8984375,-17.578125
1508291861.9655662,8.7890625,24.4140625,29.78515625,38.57421875,-32.71484375
1508291861.9694724,8.30078125,24.90234375,26.85546875,47.8515625,-48.828125
1508291861.9733787,18.06640625,30.2734375,23.4375,58.10546875,-31.73828125
1508291861.977285,25.87890625,31.25,35.64453125,65.4296875,-17.578125
1508291861.979348,15.13671875,30.2734375,37.109375,62.5,-25.390625
1508291861.9832542,-0.48828125,26.85546875,24.4140625,55.17578125,-3.90625
1508291861.9871604,9.27734375,22.94921875,28.80859375,55.17578125,-35.15625
1508291861.9910667,18.5546875,22.94921875,40.52734375,52.24609375,-66.89453125
1508291861.994973,18.5546875,24.90234375,41.015625,49.8046875,-2.9296875
1508291861.9988792,15.13671875,27.83203125,33.69140625,39.55078125,-19.04296875
1508291862.0027854,14.6484375,31.73828125,20.01953125,39.0625,-85.9375
1508291862.0066917,20.99609375,35.15625,21.484375,46.875,-42.96875
1508291862.010598,15.625,33.203125,27.83203125,48.828125,6.34765625
1508291862.0145042,0.0,30.2734375,15.625,41.50390625,-7.32421875
1508291862.0184104,2.44140625,28.3203125,19.04296875,40.0390625,-14.6484375
1508291862.0223167,15.13671875,27.83203125,31.73828125,50.78125,-22.94921875
1508291862.03889,20.5078125,28.3203125,30.76171875,48.828125,-41.50390625
1508291862.0427961,5.859375,24.90234375,22.94921875,33.203125,-54.19921875
1508291862.0467024,-5.859375,22.94921875,14.6484375,32.2265625,-34.66796875
1508291862.0506086,5.859375,27.34375,18.5546875,42.48046875,-13.18359375
1508291862.054515,10.25390625,30.2734375,20.5078125,42.48046875,22.94921875
1508291862.0584211,6.34765625,31.25,12.6953125,37.59765625,62.5
1508291862.0623274,4.39453125,29.78515625,15.13671875,21.97265625,-8.7890625
1508291862.0662336,11.71875,26.85546875,35.15625,28.3203125,-34.1796875
1508291862.07014,20.5078125,28.80859375,44.921875,44.43359375,37.109375
1508291862.0740461,19.04296875,32.2265625,34.66796875,37.59765625,14.6484375
1508291862.0779524,8.30078125,32.71484375,27.34375,24.4140625,30.2734375
1508291862.0818586,29.78515625,33.69140625,29.78515625,48.828125,63.96484375
1508291862.0989347,35.64453125,32.71484375,29.296875,67.87109375,8.30078125
1508291862.102841,-15.13671875,30.76171875,23.4375,24.90234375,-2.9296875
1508291862.1067472,-46.875,27.83203125,15.13671875,-11.23046875,-20.99609375
1508291862.1106534,-65.91796875,25.390625,15.625,-21.484375,-10.25390625
1508291862.1145597,-79.1015625,20.5078125,17.578125,-37.109375,27.34375
1508291862.118466,-101.5625,9.765625,15.625,-70.80078125,35.15625
1508291862.1223722,-131.34765625,4.8828125,9.765625,-104.00390625,28.3203125
1508291862.1262784,-156.73828125,2.44140625,12.20703125,-126.953125,41.015625
1508291862.1301847,-156.25,1.953125,20.01953125,-117.67578125,47.36328125
1508291862.134091,-152.83203125,4.39453125,11.71875,-120.60546875,10.7421875
1508291862.1379972,-159.1796875,7.32421875,13.18359375,-128.90625,12.20703125
1508291862.1419034,-155.76171875,4.8828125,25.87890625,-108.3984375,39.0625
1508291862.1289544,-149.90234375,-0.9765625,29.296875,-98.14453125,57.6171875
1508291862.1328607,-136.71875,0.0,36.1328125,-92.7734375,38.0859375
1508291862.136767,-118.1640625,2.9296875,34.66796875,-80.078125,22.94921875
1508291862.1406732,-116.69921875,1.46484375,24.4140625,-77.1484375,-3.90625
1508291862.1445794,-111.328125,0.0,19.53125,-66.89453125,-31.25
1508291862.1484857,-86.9140625,-0.9765625,15.13671875,-48.828125,0.0
1508291862.152392,-80.56640625,2.44140625,20.01953125,-40.0390625,8.7890625
1508291862.1562982,-83.984375,3.90625,22.4609375,-32.2265625,2.9296875
1508291862.1602044,-75.1953125,1.46484375,16.11328125,-25.390625,11.71875
1508291862.1641107,-52.734375,0.48828125,22.4609375,-17.578125,13.18359375
1508291862.168017,-39.0625,0.48828125,28.3203125,-9.27734375,16.11328125
1508291862.1719232,-34.1796875,4.8828125,22.4609375,-5.859375,17.578125
1508291862.1740546,-46.875,5.859375,9.27734375,-19.53125,-20.99609375
1508291862.1779609,-45.8984375,5.859375,6.8359375,-16.11328125,-35.15625
1508291862.1818671,-26.3671875,8.7890625,21.484375,-1.46484375,2.9296875
1508291862.1857734,-23.4375,12.6953125,19.04296875,-1.953125,12.6953125
1508291862.1896796,-30.76171875,11.71875,19.53125,1.953125,24.90234375
1508291862.1935859,-28.80859375,6.34765625,17.578125,14.16015625,21.484375
1508291862.1974921,-25.390625,9.27734375,16.6015625,25.87890625,27.83203125
1508291862.2013984,-21.97265625,14.6484375,22.4609375,25.390625,28.3203125
1508291862.2053046,-29.78515625,15.13671875,9.765625,6.8359375,-6.34765625
1508291862.2092109,-35.64453125,18.06640625,15.13671875,1.46484375,19.53125
1508291862.2131171,-23.4375,20.99609375,33.203125,18.5546875,60.05859375
1508291862.2170234,-17.08984375,18.06640625,24.90234375,20.5078125,40.52734375
1508291862.2191253,-25.390625,14.16015625,19.53125,10.25390625,34.1796875
1508291862.2230315,-30.2734375,13.18359375,19.53125,12.20703125,0.9765625
1508291862.2269378,-14.6484375,16.11328125,25.87890625,24.90234375,-0.48828125
1508291862.230844,-0.9765625,19.53125,29.78515625,35.64453125,20.01953125
1508291862.2347503,-5.37109375,19.04296875,19.53125,31.25,5.37109375
1508291862.2386565,-17.578125,19.53125,13.671875,18.5546875,14.16015625
1508291862.2425628,-15.625,21.97265625,7.32421875,21.484375,4.39453125
1508291862.246469,-5.37109375,22.94921875,-1.953125,30.76171875,9.765625
1508291862.2503753,-0.9765625,20.01953125,1.953125,31.25,0.0
1508291862.2542815,-2.9296875,17.08984375,17.578125,26.3671875,-9.27734375
1508291862.2581878,-2.9296875,20.5078125,24.90234375,29.78515625,41.9921875
1508291862.262094,5.859375,22.94921875,22.94921875,33.203125,41.015625
1508291862.264137,10.25390625,21.484375,21.484375,28.3203125,20.5078125
1508291862.2680433,5.859375,25.390625,20.5078125,18.06640625,6.34765625
1508291862.2719495,1.46484375,28.3203125,15.13671875,13.671875,-9.765625
1508291862.2758558,6.34765625,27.34375,18.5546875,22.4609375,18.06640625
1508291862.279762,9.27734375,27.83203125,21.484375,24.90234375,37.59765625
1508291862.2836683,-2.9296875,23.92578125,6.8359375,16.11328125,6.8359375
1508291862.2875745,-13.671875,20.5078125,13.18359375,10.7421875,19.04296875
1508291862.2914808,-10.25390625,19.53125,17.578125,12.6953125,21.97265625
1508291862.295387,-1.953125,20.01953125,13.671875,14.6484375,7.8125
1508291862.2992933,-2.9296875,22.4609375,22.94921875,11.71875,1.46484375
1508291862.3031995,-4.8828125,21.484375,14.6484375,8.30078125,-6.8359375
1508291862.3071058,7.32421875,21.484375,11.23046875,20.99609375,36.1328125
1508291862.3091693,9.27734375,22.94921875,15.625,23.92578125,41.50390625
1508291862.3130755,-1.46484375,24.4140625,13.671875,14.16015625,3.90625
1508291862.3169818,-10.25390625,21.484375,10.7421875,4.8828125,25.390625
1508291862.320888,-7.32421875,20.5078125,14.6484375,6.34765625,29.296875
1508291862.3247943,-5.859375,21.484375,25.390625,14.6484375,-16.11328125
1508291862.3287005,-7.32421875,17.578125,19.04296875,12.6953125,-22.4609375
1508291862.3326068,-11.23046875,17.08984375,9.765625,9.27734375,-22.94921875
1508291862.336513,-17.578125,18.5546875,5.859375,7.8125,-26.3671875
1508291862.3404193,-6.8359375,21.484375,23.92578125,20.01953125,23.4375
1508291862.3443255,-2.9296875,21.484375,29.296875,26.3671875,41.50390625
1508291862.3482318,-8.7890625,20.01953125,26.85546875,13.18359375,32.2265625
1508291862.352138,-11.23046875,19.53125,20.99609375,2.44140625,28.80859375
1508291862.369211,-1.953125,19.04296875,24.4140625,15.625,-0.48828125
1508291862.3731172,5.37109375,19.04296875,36.62109375,30.2734375,11.71875
1508291862.3770235,1.46484375,20.99609375,26.85546875,24.90234375,4.8828125
1508291862.3809297,-5.859375,23.92578125,28.3203125,14.6484375,4.39453125
1508291862.384836,0.9765625,23.4375,39.55078125,13.671875,34.1796875
1508291862.3887422,13.18359375,20.01953125,39.55078125,22.94921875,45.8984375
1508291862.3926485,7.8125,22.4609375,27.34375,17.08984375,38.0859375
1508291862.3965547,-1.46484375,26.3671875,26.3671875,1.46484375,4.8828125
1508291862.400461,3.90625,27.83203125,35.64453125,7.32421875,35.15625
1508291862.4043672,8.30078125,26.3671875,28.3203125,12.6953125,26.3671875
1508291862.4082735,-3.41796875,20.01953125,29.78515625,13.18359375,3.41796875
1508291862.4121797,-16.11328125,20.99609375,31.73828125,12.20703125,-18.5546875
1508291862.4142427,-14.6484375,23.92578125,26.3671875,13.18359375,9.27734375
1508291862.418149,4.8828125,20.01953125,22.4609375,24.90234375,27.83203125
1508291862.4220552,16.6015625,24.90234375,19.53125,27.34375,19.53125
1508291862.4259615,3.90625,31.25,18.5546875,11.71875,45.8984375
1508291862.4298677,-11.71875,34.1796875,12.20703125,-2.9296875,27.34375
1508291862.433774,-4.39453125,31.73828125,12.20703125,9.27734375,14.6484375
1508291862.4376802,14.16015625,28.3203125,26.85546875,26.3671875,17.08984375
1508291862.4415865,12.20703125,29.78515625,32.2265625,35.64453125,7.32421875
1508291862.4454927,4.8828125,31.73828125,24.90234375,35.15625,-6.8359375
1508291862.449399,7.8125,30.76171875,14.6484375,30.2734375,-31.73828125
1508291862.4533052,16.11328125,31.25,15.625,33.203125,-22.94921875
1508291862.4572115,18.06640625,33.69140625,28.80859375,37.59765625,-13.671875
1508291862.4742856,-1.46484375,32.2265625,20.99609375,32.71484375,-19.04296875
1508291862.4781919,-7.32421875,32.71484375,15.13671875,27.34375,-6.34765625
1508291862.482098,13.671875,35.15625,20.5078125,35.64453125,-4.8828125
1508291862.4860044,16.6015625,33.203125,25.390625,34.1796875,-4.39453125
1508291862.4899106,-2.9296875,30.76171875,16.6015625,23.92578125,-8.30078125
1508291862.4938169,-5.859375,32.71484375,9.27734375,23.92578125,-15.625
1508291862.497723,4.39453125,32.71484375,20.01953125,32.71484375,20.01953125
1508291862.5016294,9.27734375,31.25,25.87890625,34.1796875,1.46484375
1508291862.5055356,8.7890625,34.1796875,21.484375,27.34375,-26.85546875
1508291862.5094419,1.46484375,34.66796875,4.8828125,16.6015625,3.90625
1508291862.513348,10.25390625,35.15625,10.25390625,22.4609375,-3.90625
1508291862.5172544,15.13671875,38.57421875,27.34375,37.109375,9.27734375
1508291862.5043066,10.7421875,37.59765625,16.11328125,30.76171875,1.953125
1508291862.5082128,1.46484375,35.15625,9.27734375,15.625,-26.85546875
1508291862.512119,2.9296875,36.1328125,20.5078125,18.5546875,-21.97265625
1508291862.5160253,18.06640625,35.64453125,31.25,28.80859375,-10.7421875
1508291862.5199316,16.11328125,33.69140625,23.4375,24.4140625,-27.34375
1508291862.5238378,5.37109375,30.76171875,14.6484375,19.04296875,13.671875
1508291862.527744,6.8359375,28.80859375,22.94921875,21.97265625,17.08984375
1508291862.5316503,15.625,29.296875,36.62109375,27.83203125,-2.44140625
1508291862.5355566,20.01953125,30.2734375,33.69140625,26.85546875,42.48046875
1508291862.5394628,8.30078125,27.83203125,26.3671875,18.5546875,40.52734375
1508291862.543369,-3.90625,24.90234375,28.80859375,16.11328125,12.6953125
1508291862.5472753,5.37109375,25.87890625,25.87890625,23.4375,-15.625
1508291862.5493395,13.671875,20.99609375,21.97265625,25.87890625,-10.25390625
1508291862.5532458,12.6953125,16.11328125,27.83203125,20.5078125,18.06640625
1508291862.557152,4.39453125,18.5546875,40.0390625,15.625,14.16015625
1508291862.5610583,7.8125,19.53125,46.38671875,24.4140625,6.34765625
1508291862.5649645,16.6015625,21.484375,44.921875,31.73828125,17.578125
1508291862.5688708,17.578125,24.90234375,35.15625,23.4375,21.97265625
1508291862.572777,6.34765625,26.85546875,33.69140625,20.5078125,8.7890625
1508291862.5766833,3.41796875,27.34375,41.015625,20.5078125,0.0
1508291862.5805895,17.08984375,29.296875,40.0390625,25.390625,-19.04296875
1508291862.5844958,15.625,31.25,47.8515625,24.90234375,-28.80859375
1508291862.588402,0.48828125,30.2734375,55.17578125,13.18359375,0.9765625
1508291862.5923083,-5.37109375,28.3203125,42.96875,10.25390625,11.23046875
1508291862.594371,1.953125,27.83203125,47.36328125,20.5078125,14.6484375
1508291862.5982773,2.44140625,26.3671875,43.45703125,20.5078125,14.16015625
1508291862.6021836,-2.9296875,25.390625,26.85546875,11.23046875,-10.7421875
1508291862.6060898,-9.765625,27.83203125,22.4609375,5.37109375,-14.16015625
1508291862.609996,2.44140625,25.87890625,28.80859375,13.18359375,-1.953125
1508291862.6139023,9.27734375,25.390625,25.390625,16.6015625,-18.5546875
1508291862.6178086,3.41796875,26.3671875,22.94921875,14.6484375,6.8359375
1508291862.6217148,-7.32421875,24.90234375,9.765625,8.30078125,-0.9765625
1508291862.625621,-5.859375,24.4140625,0.0,6.8359375,-41.015625
1508291862.6295273,2.44140625,22.94921875,18.5546875,20.5078125,-29.296875
1508291862.6334336,-1.46484375,24.90234375,20.99609375,27.34375,-3.41796875
1508291862.6373398,-6.34765625,26.3671875,17.578125,18.5546875,-4.39453125
1508291862.6389036,-5.37109375,23.4375,25.390625,18.06640625,11.71875
1508291862.6428099,7.32421875,21.484375,31.73828125,30.76171875,-8.7890625
1508291862.646716,14.6484375,23.4375,33.69140625,27.83203125,7.8125
1508291862.6506224,2.44140625,22.94921875,30.2734375,10.25390625,25.87890625
1508291862.6545286,-8.30078125,22.4609375,27.83203125,6.8359375,-4.39453125
1508291862.6584349,3.41796875,25.87890625,27.34375,19.53125,13.671875
1508291862.662341,9.27734375,25.87890625,27.83203125,25.87890625,38.57421875
1508291862.6662474,5.37109375,23.92578125,13.671875,16.11328125,7.8125
1508291862.6701536,-10.25390625,21.484375,9.27734375,3.41796875,14.6484375
1508291862.6740599,-5.859375,18.06640625,20.5078125,16.11328125,34.66796875
1508291862.677966,5.859375,22.4609375,17.08984375,22.94921875,23.4375
1508291862.6818724,2.9296875,29.296875,15.13671875,15.625,17.08984375
1508291862.6839347,-7.32421875,29.296875,16.6015625,11.23046875,-12.6953125
1508291862.687841,-6.34765625,25.87890625,17.578125,14.16015625,18.5546875
1508291862.6917472,15.13671875,26.3671875,14.6484375,23.4375,2.9296875
1508291862.6956534,8.7890625,27.83203125,15.13671875,21.97265625,-34.1796875
1508291862.6995597,-8.30078125,23.4375,12.6953125,9.27734375,-41.015625
1508291862.703466,-7.8125,20.01953125,16.6015625,13.671875,-23.92578125
1508291862.7073722,4.8828125,20.99609375,19.53125,26.3671875,-3.90625
1508291862.7112784,9.27734375,24.4140625,17.578125,17.08984375,-9.765625
1508291862.7151847,1.953125,25.390625,29.296875,14.6484375,7.32421875
1508291862.719091,-8.30078125,23.92578125,24.4140625,16.6015625,0.48828125
1508291862.7229972,-5.859375,22.94921875,19.04296875,18.5546875,-1.46484375
1508291862.7269034,0.48828125,23.4375,20.99609375,20.5078125,-16.6015625
1508291862.7439787,0.0,21.484375,22.94921875,18.06640625,-3.41796875
1508291862.747885,-6.34765625,19.04296875,16.11328125,17.578125,20.5078125
1508291862.7517912,-3.90625,21.484375,10.7421875,21.97265625,-14.16015625
1508291862.7556975,2.44140625,22.4609375,20.99609375,28.3203125,1.46484375
1508291862.7596037,-0.48828125,20.99609375,25.390625,26.3671875,40.52734375
1508291862.76351,-9.765625,21.97265625,14.6484375,14.6484375,47.8515625
1508291862.7674162,-4.8828125,24.4140625,3.90625,16.11328125,26.3671875
1508291862.7713225,7.32421875,24.4140625,13.671875,25.87890625,12.6953125
1508291862.7752287,3.41796875,21.97265625,34.1796875,32.2265625,36.62109375
1508291862.779135,-3.41796875,22.4609375,30.76171875,30.2734375,0.0
1508291862.7830412,-9.27734375,25.87890625,27.34375,30.76171875,-43.9453125
1508291862.7869475,-0.48828125,25.87890625,36.62109375,39.55078125,-0.9765625
1508291862.7739987,8.7890625,24.90234375,39.55078125,43.45703125,42.48046875
1508291862.777905,-2.44140625,29.296875,32.2265625,43.45703125,37.109375
1508291862.7818112,-9.27734375,26.3671875,28.3203125,39.55078125,7.8125
1508291862.7857175,0.9765625,19.04296875,33.203125,42.48046875,11.23046875
1508291862.7896237,7.8125,21.97265625,33.69140625,48.33984375,56.640625
1508291862.79353,3.90625,28.80859375,28.80859375,47.8515625,20.5078125
1508291862.7974362,-9.765625,33.69140625,31.73828125,32.71484375,2.9296875
1508291862.8013425,-3.41796875,28.80859375,42.96875,23.4375,13.671875
1508291862.8052487,5.859375,28.80859375,45.8984375,35.64453125,-16.11328125
1508291862.809155,3.90625,31.25,26.85546875,40.0390625,-54.19921875
1508291862.8130612,-6.34765625,27.83203125,14.6484375,31.73828125,-51.7578125
1508291862.8169675,-5.859375,26.85546875,32.71484375,41.9921875,-14.16015625
1508291862.8340418,5.37109375,21.484375,39.55078125,55.17578125,-22.4609375
1508291862.837948,14.6484375,19.53125,38.57421875,48.33984375,-4.39453125
1508291862.8418543,4.8828125,18.06640625,37.109375,34.66796875,15.13671875
1508291862.8457606,-8.30078125,19.53125,33.69140625,32.2265625,19.04296875
1508291862.8496668,11.23046875,22.94921875,23.92578125,39.55078125,42.48046875
1508291862.853573,12.20703125,18.5546875,11.23046875,34.1796875,18.06640625
1508291862.8574793,-4.39453125,20.01953125,14.6484375,33.203125,15.13671875
1508291862.8613856,-8.30078125,20.5078125,24.4140625,38.57421875,0.9765625
1508291862.8652918,11.71875,20.5078125,29.78515625,58.10546875,17.578125
1508291862.869198,19.53125,24.90234375,25.87890625,55.6640625,31.25
1508291862.8731043,-1.953125,19.53125,33.203125,29.296875,13.18359375
1508291862.8770106,-15.13671875,14.16015625,43.45703125,20.5078125,35.15625
1508291862.879093,-9.27734375,19.04296875,32.71484375,22.4609375,19.53125
1508291862.8829992,-1.46484375,22.4609375,27.83203125,25.390625,8.30078125
1508291862.8869054,-3.41796875,24.4140625,26.3671875,31.73828125,34.1796875
1508291862.8908117,-15.13671875,21.484375,17.08984375,23.92578125,25.87890625
1508291862.894718,-11.23046875,20.01953125,12.6953125,16.11328125,0.9765625
1508291862.8986242,8.30078125,20.5078125,20.99609375,29.296875,15.625
1508291862.9025304,12.20703125,18.06640625,27.34375,33.203125,31.25
1508291862.9064367,3.90625,18.5546875,25.390625,28.80859375,19.04296875
1508291862.910343,-6.34765625,15.625,13.18359375,16.6015625,-19.53125
1508291862.9142492,3.90625,17.578125,9.765625,16.11328125,-28.80859375
1508291862.9181554,19.04296875,23.92578125,31.25,29.296875,17.08984375
1508291862.9220617,6.8359375,22.4609375,37.59765625,26.85546875,20.5078125
1508291862.9241257,-11.71875,21.97265625,31.73828125,15.13671875,39.0625
1508291862.928032,-1.46484375,22.4609375,32.2265625,20.5078125,38.0859375
1508291862.9319382,6.8359375,20.99609375,37.109375,25.390625,1.953125
1508291862.9358444,7.8125,21.97265625,32.71484375,23.92578125,-4.8828125
1508291862.9397507,-5.37109375,23.4375,25.87890625,15.13671875,27.83203125
1508291862.943657,-4.8828125,25.87890625,22.94921875,17.08984375,34.66796875
1508291862.9475632,14.16015625,26.3671875,16.6015625,27.83203125,16.11328125
1508291862.9514694,11.23046875,22.94921875,19.04296875,25.390625,48.33984375
1508291862.9553757,-6.8359375,21.97265625,4.8828125,9.765625,-2.44140625
1508291862.959282,-6.8359375,22.4609375,5.859375,10.7421875,-18.06640625
1508291862.9631882,1.953125,24.4140625,31.73828125,27.34375,-5.859375
1508291862.9670944,1.953125,25.390625,24.90234375,27.83203125,-41.015625
1508291862.969137,1.953125,23.4375,16.11328125,21.97265625,-2.44140625
1508291862.9730432,-5.859375,23.92578125,19.04296875,17.08984375,14.6484375
1508291862.9769495,2.9296875,23.4375,21.97265625,23.92578125,22.4609375
1508291862.9808557,8.30078125,24.90234375,13.18359375,25.390625,49.8046875
1508291862.984762,0.0,28.80859375,3.90625,11.71875,32.2265625
1508291862.9886682,-10.25390625,25.390625,4.39453125,2.9296875,24.4140625
1508291862.9925745,-0.9765625,21.484375,13.671875,13.18359375,29.78515625
1508291862.9964807,5.859375,23.92578125,9.765625,13.671875,17.578125
1508291863.000387,8.7890625,23.4375,0.48828125,6.8359375,-20.01953125
1508291863.0042932,8.30078125,22.4609375,13.18359375,10.25390625,-6.34765625
1508291863.0081995,0.48828125,23.92578125,17.578125,17.08984375,45.8984375
1508291863.0121057,7.8125,27.34375,17.578125,24.4140625,58.10546875
1508291863.014171,11.71875,33.203125,14.6484375,26.3671875,60.546875
1508291863.0180771,1.46484375,31.73828125,11.71875,17.08984375,62.5
1508291863.0219834,-2.44140625,30.76171875,9.765625,16.11328125,61.03515625
1508291863.0258896,4.39453125,29.296875,11.23046875,27.83203125,49.31640625
1508291863.029796,6.8359375,24.4140625,14.16015625,30.2734375,16.11328125
1508291863.0337021,2.44140625,27.34375,12.20703125,21.97265625,20.01953125
1508291863.0376084,-8.30078125,27.34375,5.37109375,17.578125,31.73828125
1508291863.0415146,-0.48828125,25.87890625,7.8125,20.01953125,-25.87890625
1508291863.045421,11.23046875,31.25,21.484375,20.5078125,-9.27734375
1508291863.0493271,8.7890625,29.78515625,20.99609375,22.4609375,14.6484375
1508291863.0532334,2.44140625,26.85546875,18.06640625,22.4609375,-1.953125
1508291863.0571396,5.859375,23.92578125,21.484375,23.92578125,26.85546875
1508291863.0592027,13.18359375,24.4140625,26.85546875,25.390625,9.765625
1508291863.063109,15.13671875,28.80859375,30.2734375,24.90234375,4.39453125
1508291863.0670152,8.30078125,29.296875,19.04296875,21.97265625,-12.6953125
1508291863.0709214,15.13671875,32.2265625,12.20703125,26.85546875,-18.5546875
1508291863.0748277,24.4140625,34.1796875,13.671875,32.71484375,-5.37109375
1508291863.078734,10.7421875,29.78515625,14.16015625,34.66796875,22.4609375
1508291863.0826402,-5.859375,24.4140625,10.7421875,30.2734375,30.76171875
1508291863.0865464,-19.53125,17.08984375,10.7421875,17.08984375,-24.4140625
1508291863.0904527,-0.48828125,17.578125,24.4140625,34.1796875,-1.46484375
1508291863.094359,6.8359375,20.99609375,20.99609375,38.57421875,-6.34765625
1508291863.0982652,-0.48828125,23.92578125,14.16015625,22.94921875,-19.53125
1508291863.1021714,-6.34765625,25.87890625,16.11328125,21.97265625,-11.71875
1508291863.1042345,-1.953125,27.34375,21.484375,27.83203125,-1.46484375
1508291863.1081407,5.37109375,26.85546875,27.83203125,31.73828125,5.37109375
1508291863.112047,1.46484375,25.87890625,32.2265625,30.2734375,-3.90625
1508291863.1159532,-4.8828125,27.83203125,35.64453125,22.94921875,3.90625
1508291863.1198595,-4.39453125,27.34375,38.57421875,26.85546875,-3.90625
1508291863.1237657,12.6953125,24.4140625,35.15625,40.52734375,30.2734375
1508291863.127672,15.625,24.4140625,20.01953125,33.69140625,27.34375
1508291863.1315782,-0.9765625,28.80859375,17.578125,25.87890625,-6.34765625
1508291863.1354845,0.48828125,35.64453125,30.76171875,34.1796875,0.48828125
1508291863.1393907,12.20703125,38.57421875,31.25,42.96875,25.390625
1508291863.143297,4.39453125,33.203125,29.78515625,34.1796875,33.69140625
1508291863.1472032,-3.90625,29.296875,36.62109375,21.97265625,52.24609375
1508291863.149785,-3.90625,28.80859375,36.62109375,23.92578125,69.82421875
1508291863.1536913,3.90625,26.85546875,33.203125,28.3203125,16.11328125
1508291863.1575975,10.25390625,32.71484375,34.1796875,31.73828125,12.20703125
1508291863.1615038,-0.48828125,36.62109375,36.62109375,28.3203125,-8.7890625
1508291863.16541,-3.41796875,32.71484375,43.9453125,20.5078125,-41.9921875
1508291863.1693163,4.8828125,35.64453125,40.52734375,30.2734375,-3.41796875
1508291863.1732225,7.32421875,37.109375,30.76171875,27.34375,-5.859375
1508291863.1771288,2.44140625,31.73828125,39.55078125,23.92578125,0.9765625
1508291863.181035,-6.8359375,26.3671875,33.69140625,27.34375,12.20703125
1508291863.1849413,-11.71875,21.97265625,27.34375,20.99609375,0.9765625
1508291863.1888475,-6.34765625,23.4375,32.2265625,25.390625,4.39453125
1508291863.1927538,2.44140625,19.04296875,30.76171875,32.71484375,26.85546875
1508291863.2093253,0.9765625,17.578125,27.34375,25.87890625,29.296875
1508291863.2132316,-1.953125,27.34375,15.625,15.13671875,23.92578125
1508291863.2171378,1.953125,27.83203125,16.11328125,24.4140625,17.578125
1508291863.221044,7.8125,21.97265625,18.5546875,31.25,-9.27734375
1508291863.2249503,8.7890625,20.01953125,12.6953125,24.4140625,0.9765625
1508291863.2288566,0.0,21.484375,8.7890625,19.53125,-11.23046875
1508291863.2327628,7.32421875,22.4609375,12.6953125,27.83203125,-16.11328125
1508291863.236669,15.13671875,21.97265625,16.11328125,34.1796875,-7.8125
1508291863.2405753,13.18359375,21.484375,15.13671875,34.66796875,2.9296875
1508291863.2444816,10.7421875,24.4140625,1.953125,30.76171875,-2.9296875
1508291863.2483878,9.765625,26.85546875,4.8828125,31.73828125,-13.18359375
1508291863.252294,0.9765625,21.97265625,11.23046875,34.66796875,14.6484375
1508291863.254357,-2.9296875,23.92578125,-2.44140625,29.296875,32.71484375
1508291863.2582633,-6.8359375,29.78515625,-5.37109375,23.92578125,-3.41796875
1508291863.2621696,-15.625,22.4609375,2.9296875,24.90234375,-22.94921875
1508291863.2660758,-2.9296875,18.06640625,11.71875,36.1328125,-3.90625
1508291863.269982,6.8359375,20.01953125,12.6953125,41.015625,12.6953125
1508291863.2738883,-1.46484375,20.99609375,5.859375,28.3203125,44.921875
1508291863.2777946,-1.953125,21.484375,8.30078125,22.4609375,14.6484375
1508291863.2817008,4.8828125,19.04296875,25.390625,37.109375,9.765625
1508291863.285607,3.90625,19.53125,28.80859375,42.96875,20.99609375
1508291863.2895133,0.0,18.5546875,22.94921875,24.90234375,12.20703125
1508291863.2934196,1.953125,16.6015625,31.25,20.99609375,26.3671875
1508291863.2973258,12.20703125,13.671875,31.73828125,41.50390625,8.30078125
1508291863.2994096,18.06640625,14.16015625,23.92578125,39.55078125,-12.20703125
1508291863.3033159,8.30078125,20.99609375,17.578125,29.78515625,-28.3203125
1508291863.3072221,3.41796875,22.94921875,16.11328125,35.64453125,13.18359375
1508291863.3111284,5.37109375,21.97265625,17.08984375,38.57421875,30.76171875
1508291863.3150346,7.32421875,21.484375,19.53125,37.109375,5.859375
1508291863.3189409,8.30078125,21.484375,19.04296875,38.57421875,1.953125
1508291863.3228471,2.9296875,21.484375,11.71875,31.73828125,-8.7890625
1508291863.3267534,6.34765625,20.01953125,19.53125,34.1796875,-13.671875
1508291863.3306596,22.4609375,19.53125,21.97265625,47.36328125,-30.76171875
1508291863.3345659,22.94921875,23.4375,28.80859375,48.33984375,-20.01953125
1508291863.3384721,3.90625,21.97265625,46.38671875,40.52734375,14.6484375
1508291863.3423784,-9.27734375,22.94921875,39.55078125,33.203125,-3.90625
1508291863.3439202,3.41796875,22.4609375,34.66796875,39.0625,5.37109375
1508291863.3478265,15.625,21.484375,31.73828125,38.57421875,3.41796875
1508291863.3517327,10.25390625,25.87890625,26.3671875,35.15625,23.4375
1508291863.355639,-0.48828125,24.4140625,16.11328125,31.25,39.55078125
1508291863.3595452,3.41796875,26.85546875,17.578125,32.2265625,33.203125
1508291863.3634515,8.30078125,31.73828125,23.4375,32.2265625,27.83203125
1508291863.3673577,6.34765625,30.76171875,21.97265625,23.4375,-21.484375
1508291863.371264,-2.44140625,30.76171875,19.53125,19.04296875,-25.390625
1508291863.3751702,-7.32421875,26.3671875,15.625,17.08984375,-4.8828125
1508291863.3790765,4.39453125,21.97265625,32.71484375,28.3203125,-6.8359375
1508291863.3829827,2.44140625,20.5078125,34.66796875,33.203125,5.859375
1508291863.386889,-6.8359375,23.4375,20.5078125,20.01953125,6.34765625
1508291863.3890066,3.41796875,25.87890625,21.484375,16.6015625,-1.46484375
1508291863.3929129,13.671875,27.34375,33.69140625,31.73828125,14.6484375
1508291863.396819,7.8125,30.2734375,24.4140625,32.2265625,11.23046875
1508291863.4007254,-0.48828125,29.296875,23.4375,19.53125,-6.34765625
1508291863.4046316,-4.8828125,28.80859375,22.4609375,16.11328125,-2.9296875
1508291863.4085379,2.9296875,31.73828125,19.04296875,25.390625,-3.90625
1508291863.412444,8.7890625,29.78515625,26.85546875,31.25,-20.01953125
1508291863.4163504,5.859375,27.83203125,19.04296875,16.11328125,-56.15234375
1508291863.4202566,-2.44140625,27.34375,27.83203125,9.27734375,-37.109375
1508291863.4241629,8.30078125,25.87890625,45.41015625,25.87890625,-8.7890625
1508291863.428069,20.99609375,25.390625,36.62109375,28.80859375,1.46484375
1508291863.4319754,10.25390625,26.85546875,23.4375,15.13671875,0.48828125
1508291863.4345403,-4.8828125,29.78515625,18.06640625,3.90625,-30.2734375
1508291863.4384465,-3.90625,27.83203125,22.94921875,8.7890625,-42.96875
1508291863.4423528,1.953125,24.4140625,23.92578125,13.18359375,-41.015625
1508291863.446259,2.44140625,25.390625,27.83203125,9.27734375,-22.4609375
1508291863.4501653,0.9765625,23.92578125,26.85546875,2.9296875,13.18359375
1508291863.4540715,-2.44140625,20.01953125,19.53125,5.859375,6.34765625
1508291863.4579778,5.859375,23.4375,23.4375,17.578125,-7.32421875
1508291863.461884,7.32421875,26.85546875,24.4140625,11.23046875,-6.34765625
1508291863.4657903,-3.90625,27.83203125,27.83203125,1.46484375,-13.671875
1508291863.4696965,-8.7890625,29.78515625,26.85546875,1.46484375,-3.41796875
1508291863.4736028,1.46484375,28.3203125,20.01953125,4.8828125,-7.8125
1508291863.477509,1.46484375,29.78515625,23.4375,3.90625,14.16015625
1508291863.4790704,-4.8828125,28.3203125,33.203125,2.9296875,20.01953125
1508291863.4829767,-10.7421875,23.4375,23.4375,-5.859375,-13.671875
1508291863.486883,-13.671875,21.97265625,9.765625,-8.7890625,-25.390625
1508291863.4907892,-4.8828125,24.4140625,15.625,1.46484375,16.6015625
1508291863.4946954,-7.32421875,22.4609375,20.01953125,-4.8828125,42.48046875
1508291863.4986017,-18.5546875,20.01953125,9.765625,-19.53125,40.0390625
1508291863.502508,-16.11328125,25.87890625,3.41796875,-14.6484375,17.578125
1508291863.5064142,-2.9296875,28.80859375,18.5546875,-3.41796875,-20.5078125
1508291863.5103204,4.39453125,27.34375,39.0625,9.27734375,-8.30078125
1508291863.5142267,-4.39453125,25.87890625,34.1796875,-0.48828125,-3.41796875
1508291863.518133,-15.625,28.80859375,27.83203125,-13.18359375,-5.37109375
1508291863.5220392,-4.39453125,35.15625,37.109375,7.8125,50.78125
1508291863.5241063,4.8828125,36.62109375,33.203125,15.13671875,31.25
1508291863.5280125,-2.44140625,30.2734375,18.5546875,5.37109375,-15.625
1508291863.5319188,-9.27734375,29.78515625,20.5078125,4.8828125,18.5546875
1508291863.535825,0.9765625,32.2265625,30.76171875,17.578125,14.16015625
1508291863.5397313,7.8125,32.2265625,33.203125,25.390625,8.30078125
1508291863.5436375,2.44140625,29.78515625,24.90234375,19.04296875,15.13671875
1508291863.5475438,-7.32421875,31.25,19.04296875,6.8359375,-32.2265625
1508291863.55145,-2.9296875,28.80859375,38.0859375,14.6484375,-31.73828125
1508291863.5553563,8.7890625,20.5078125,42.96875,33.69140625,-2.44140625
1508291863.5592625,6.34765625,19.04296875,30.76171875,30.76171875,-14.16015625
1508291863.5631688,-9.27734375,20.5078125,29.296875,18.06640625,-27.34375
1508291863.567075,-9.27734375,19.04296875,38.0859375,30.2734375,-5.37109375
1508291863.5841444,4.39453125,18.5546875,41.50390625,38.57421875,-0.48828125
1508291863.5880506,2.9296875,19.04296875,39.0625,23.92578125,8.30078125
1508291863.5919569,-5.859375,18.06640625,31.73828125,20.99609375,9.765625
1508291863.595863,-12.20703125,19.04296875,32.71484375,19.04296875,-16.11328125
1508291863.5997694,-6.8359375,20.99609375,32.2265625,27.34375,-36.62109375
1508291863.6036756,1.46484375,24.90234375,27.34375,30.76171875,-23.92578125
1508291863.6075819,-0.48828125,25.87890625,34.66796875,21.484375,19.04296875
1508291863.611488,-4.8828125,25.390625,38.57421875,23.4375,48.33984375
1508291863.6153944,3.90625,28.3203125,30.2734375,36.1328125,19.04296875
1508291863.6193006,11.71875,29.78515625,17.08984375,39.55078125,-6.8359375
1508291863.6232069,8.7890625,28.3203125,25.87890625,27.83203125,22.4609375
1508291863.627113,-1.46484375,28.80859375,36.1328125,25.87890625,15.625
1508291863.6291945,0.9765625,30.76171875,31.73828125,27.34375,-0.9765625
1508291863.6331007,15.625,31.73828125,28.3203125,26.85546875,-20.5078125
1508291863.637007,11.23046875,26.3671875,26.3671875,29.78515625,-36.1328125
1508291863.6409132,10.25390625,20.99609375,27.83203125,36.1328125,-35.15625
1508291863.6448195,18.5546875,25.87890625,22.4609375,36.62109375,-27.83203125
1508291863.6487257,17.578125,31.73828125,13.671875,23.92578125,8.30078125
1508291863.652632,22.94921875,35.15625,10.7421875,25.390625,15.625
1508291863.6565382,16.11328125,38.57421875,11.23046875,29.296875,35.15625
1508291863.6604445,6.34765625,36.62109375,1.953125,28.3203125,5.859375
1508291863.6643507,23.92578125,35.15625,1.46484375,38.57421875,-10.7421875
1508291863.668257,28.80859375,32.71484375,16.11328125,44.921875,35.64453125
1508291863.6721632,21.484375,30.2734375,16.11328125,42.96875,4.39453125
1508291863.6742074,8.7890625,30.2734375,16.6015625,36.1328125,-5.37109375
1508291863.6781137,14.6484375,27.83203125,19.04296875,40.52734375,8.30078125
1508291863.68202,31.73828125,25.87890625,22.94921875,49.8046875,30.76171875
1508291863.6859262,28.3203125,30.76171875,19.53125,46.38671875,54.19921875
1508291863.6898324,15.625,33.69140625,13.18359375,34.1796875,33.69140625
1508291863.6937387,15.13671875,32.2265625,16.11328125,34.66796875,26.85546875
1508291863.697645,24.90234375,33.203125,24.90234375,46.38671875,19.04296875
1508291863.7015512,27.83203125,28.3203125,34.66796875,46.875,41.9921875
1508291863.7054574,15.625,24.4140625,20.01953125,33.69140625,43.9453125
1508291863.7093637,12.20703125,24.90234375,19.53125,28.80859375,-4.8828125
1508291863.71327,24.4140625,25.390625,41.015625,44.921875,12.6953125
1508291863.7171762,26.85546875,28.3203125,38.57421875,47.8515625,32.2265625
1508291863.7192595,18.06640625,31.25,26.3671875,37.109375,30.76171875
1508291863.7231658,6.8359375,31.73828125,18.5546875,24.4140625,15.625
1508291863.727072,16.11328125,32.2265625,22.94921875,33.203125,40.0390625
1508291863.7309783,23.4375,30.2734375,20.01953125,42.48046875,24.4140625
1508291863.7348845,9.765625,25.87890625,14.16015625,33.69140625,-22.4609375
1508291863.7387908,-2.9296875,28.80859375,14.6484375,26.3671875,-16.11328125
1508291863.742697,3.90625,29.296875,20.01953125,26.3671875,-15.625
1508291863.7466033,15.625,27.83203125,22.94921875,30.2734375,2.44140625
1508291863.7505095,17.578125,30.2734375,20.01953125,23.4375,-9.27734375
1508291863.7544158,13.18359375,30.2734375,23.92578125,17.08984375,-9.27734375
1508291863.758322,8.30078125,30.2734375,23.4375,24.90234375,25.87890625
1508291863.7622283,6.8359375,24.90234375,22.4609375,27.83203125,31.25
1508291863.7642703,-0.9765625,18.5546875,29.78515625,27.34375,27.83203125
1508291863.7681766,-9.765625,20.5078125,35.15625,22.94921875,16.6015625
1508291863.7720828,-6.8359375,23.4375,33.203125,23.92578125,-5.859375
1508291863.775989,3.41796875,26.3671875,36.1328125,31.73828125,-13.671875
1508291863.7798953,5.859375,29.78515625,37.59765625,27.34375,12.6953125
1508291863.7838016,0.48828125,29.78515625,26.3671875,15.625,2.9296875
1508291863.7877078,-3.41796875,31.73828125,20.99609375,9.765625,-15.13671875
1508291863.791614,0.9765625,32.2265625,18.06640625,5.37109375,-9.765625
1508291863.7955203,4.8828125,27.83203125,26.85546875,4.8828125,-10.25390625
1508291863.7994266,-4.39453125,24.4140625,38.57421875,11.71875,5.859375
1508291863.8033328,-25.390625,26.3671875,28.80859375,3.41796875,-0.9765625
1508291863.807239,-22.4609375,29.296875,21.97265625,10.7421875,7.32421875
1508291863.8093028,0.0,33.203125,20.5078125,27.83203125,41.015625
1508291863.813209,2.44140625,34.66796875,20.99609375,32.71484375,41.015625
1508291863.8171153,-10.25390625,30.2734375,14.6484375,22.4609375,-9.765625
1508291863.8210216,-2.44140625,30.76171875,13.671875,13.671875,-31.73828125
1508291863.8249278,6.34765625,30.2734375,21.97265625,17.08984375,0.9765625
1508291863.828834,0.0,27.34375,20.01953125,10.7421875,-7.32421875
1508291863.8327403,-16.11328125,24.90234375,15.13671875,-4.8828125,-21.97265625
1508291863.8366466,-28.3203125,21.97265625,10.7421875,-11.23046875,-63.96484375
1508291863.8405528,-14.16015625,26.3671875,31.73828125,4.8828125,-56.640625
1508291863.844459,0.9765625,34.66796875,42.48046875,20.99609375,-2.9296875
1508291863.8483653,-1.46484375,38.0859375,31.25,18.5546875,-25.390625
1508291863.8522716,0.0,38.0859375,24.90234375,14.16015625,2.44140625
1508291863.854334,10.25390625,39.55078125,21.484375,21.97265625,16.6015625
1508291863.8582404,15.13671875,37.109375,28.3203125,26.3671875,18.06640625
1508291863.8621466,13.18359375,29.296875,32.71484375,27.83203125,31.25
1508291863.8660529,-3.41796875,26.3671875,24.90234375,22.4609375,-0.9765625
1508291863.869959,3.41796875,26.85546875,21.484375,20.99609375,-5.37109375
1508291863.8738654,21.97265625,25.87890625,24.90234375,25.87890625,-13.18359375
1508291863.8777716,17.08984375,28.80859375,12.6953125,21.484375,-38.0859375
1508291863.8816779,10.25390625,28.80859375,8.7890625,16.6015625,-49.8046875
1508291863.885584,10.25390625,28.3203125,25.390625,25.87890625,-41.9921875
1508291863.8894904,10.7421875,32.71484375,27.83203125,38.0859375,-46.875
1508291863.8933966,1.953125,32.2265625,28.80859375,38.57421875,-34.66796875
1508291863.8973029,-8.30078125,28.80859375,32.2265625,34.1796875,-18.5546875
1508291863.8993866,-8.30078125,28.80859375,35.64453125,32.2265625,-52.734375
1508291863.903293,-2.9296875,30.2734375,35.64453125,36.1328125,-35.15625
1508291863.9071991,1.953125,32.2265625,29.78515625,40.0390625,26.3671875
1508291863.9111054,-0.9765625,30.76171875,21.97265625,30.76171875,19.53125
1508291863.9150116,-9.765625,28.80859375,23.92578125,22.4609375,5.859375
1508291863.918918,-10.25390625,26.85546875,22.4609375,24.90234375,-13.18359375
1508291863.9228241,-4.8828125,26.85546875,24.90234375,22.4609375,16.6015625
1508291863.9267304,-0.48828125,35.15625,33.69140625,20.5078125,19.04296875
1508291863.9306366,-9.27734375,38.0859375,30.76171875,28.3203125,-18.06640625
1508291863.934543,-2.44140625,36.62109375,34.66796875,41.015625,-7.8125
1508291863.9384491,16.6015625,35.64453125,39.55078125,52.24609375,19.53125
1508291863.9423554,20.01953125,32.71484375,34.66796875,50.29296875,31.73828125
1508291863.9591248,13.18359375,30.76171875,29.78515625,38.57421875,6.8359375
1508291863.963031,2.9296875,31.73828125,23.4375,27.83203125,-18.06640625
1508291863.9669373,-0.48828125,31.73828125,29.296875,26.3671875,3.90625
1508291863.9708436,10.7421875,29.78515625,39.55078125,31.25,-7.32421875
1508291863.9747498,9.765625,30.2734375,30.76171875,29.78515625,23.4375
1508291863.978656,-6.34765625,25.87890625,18.06640625,20.99609375,37.59765625
1508291863.9825623,6.34765625,23.4375,16.6015625,31.25,-20.5078125
1508291863.9864686,25.87890625,26.85546875,16.11328125,39.55078125,9.27734375
1508291863.9903748,23.4375,29.78515625,20.01953125,35.15625,-5.37109375
1508291863.994281,4.39453125,30.2734375,6.8359375,21.484375,-39.55078125
1508291863.9981873,-3.41796875,27.83203125,14.16015625,20.5078125,1.953125
1508291864.0020936,5.859375,23.92578125,31.73828125,38.57421875,58.59375
1508291864.0041807,4.8828125,21.97265625,15.625,27.34375,27.83203125
1508291864.008087,-5.37109375,19.04296875,9.27734375,9.765625,-20.99609375
1508291864.0119932,1.46484375,20.5078125,19.53125,16.6015625,27.83203125
1508291864.0158994,8.30078125,21.97265625,18.5546875,33.69140625,30.2734375
1508291864.0198057,11.71875,23.4375,10.25390625,40.0390625,-32.71484375
1508291864.023712,14.16015625,25.87890625,1.46484375,31.73828125,-10.25390625
1508291864.0276182,3.90625,25.390625,8.30078125,26.85546875,33.69140625
1508291864.0315244,7.32421875,24.90234375,23.4375,38.57421875,20.99609375
1508291864.0354307,10.25390625,22.4609375,14.6484375,42.48046875,22.94921875
1508291864.039337,3.41796875,21.484375,1.46484375,28.3203125,-9.27734375
1508291864.0432432,4.39453125,23.92578125,14.16015625,25.390625,-27.34375
1508291864.0471494,15.625,26.3671875,18.5546875,45.8984375,16.11328125
1508291864.0492067,18.06640625,26.3671875,16.11328125,54.6875,20.5078125
1508291864.053113,8.30078125,24.4140625,17.08984375,49.8046875,-9.765625
1508291864.0570192,2.44140625,22.94921875,10.25390625,38.0859375,0.0
1508291864.0609255,13.671875,20.99609375,4.39453125,42.96875,18.06640625
1508291864.0648317,19.04296875,23.92578125,1.953125,46.38671875,-3.90625
1508291864.068738,14.16015625,26.85546875,2.44140625,35.15625,25.390625
1508291864.0726442,15.625,29.296875,-0.9765625,36.62109375,5.37109375
1508291864.0765505,18.06640625,28.3203125,0.0,40.0390625,-13.671875
1508291864.0804567,34.66796875,27.83203125,6.34765625,41.015625,12.20703125
1508291864.084363,45.8984375,31.25,9.765625,42.48046875,26.85546875
1508291864.0882692,22.4609375,25.87890625,13.18359375,37.109375,23.92578125
1508291864.0921755,-3.90625,23.4375,12.20703125,27.34375,11.23046875
1508291864.0942214,11.23046875,22.4609375,6.8359375,24.90234375,18.5546875
1508291864.0981276,21.484375,19.53125,10.25390625,23.92578125,-0.48828125
1508291864.1020339,8.7890625,18.06640625,17.578125,26.85546875,-6.34765625
1508291864.10594,-3.90625,15.625,14.16015625,25.390625,-3.41796875
1508291864.1098464,6.34765625,18.06640625,15.625,29.78515625,19.04296875
1508291864.1137526,16.6015625,22.4609375,25.87890625,39.55078125,41.015625
1508291864.1176589,11.23046875,23.92578125,30.76171875,27.83203125,37.109375
1508291864.121565,-5.37109375,21.97265625,20.5078125,10.25390625,28.3203125
1508291864.1254714,-13.18359375,18.5546875,17.08984375,9.765625,11.71875
1508291864.1293776,0.9765625,17.578125,32.71484375,27.83203125,-2.9296875
1508291864.1332839,1.46484375,20.01953125,32.71484375,31.25,-16.11328125
1508291864.13719,-6.34765625,23.4375,23.4375,16.6015625,4.39453125
1508291864.139273,-1.46484375,27.34375,26.3671875,12.6953125,26.3671875
1508291864.1431792,8.7890625,29.296875,37.59765625,25.390625,36.62109375
1508291864.1470854,3.41796875,24.90234375,35.15625,24.90234375,42.48046875
1508291864.1509917,-6.8359375,22.94921875,33.69140625,11.71875,45.41015625
1508291864.154898,-6.8359375,24.90234375,33.69140625,11.23046875,40.0390625
1508291864.1588042,-0.48828125,20.5078125,33.203125,22.94921875,34.66796875
1508291864.1627104,6.34765625,16.6015625,43.9453125,31.25,34.1796875
1508291864.1666167,0.0,15.13671875,36.62109375,23.4375,-4.39453125
1508291864.170523,-7.8125,17.08984375,30.2734375,14.16015625,-3.41796875
1508291864.1744292,1.953125,18.5546875,44.921875,29.296875,21.484375
1508291864.1783354,11.23046875,17.578125,39.55078125,36.62109375,6.8359375
1508291864.1822417,5.37109375,19.53125,30.2734375,24.90234375,12.6953125
1508291864.1843095,-13.671875,20.5078125,31.73828125,16.6015625,22.4609375
1508291864.1882157,-12.6953125,21.484375,33.69140625,20.01953125,13.18359375
1508291864.192122,5.859375,21.97265625,30.76171875,27.83203125,0.9765625
1508291864.1960282,5.859375,18.06640625,21.484375,27.34375,37.59765625
1508291864.1999345,-1.953125,16.6015625,19.04296875,18.06640625,25.87890625
1508291864.2038407,-2.9296875,19.04296875,19.04296875,13.671875,13.671875
1508291864.207747,6.8359375,21.484375,13.18359375,28.3203125,72.75390625
1508291864.2116532,10.7421875,24.4140625,6.34765625,22.94921875,17.578125
1508291864.2155595,-0.9765625,22.4609375,24.4140625,11.71875,35.15625
1508291864.2194657,-12.20703125,20.99609375,32.2265625,15.625,23.4375
1508291864.223372,-3.41796875,23.92578125,22.94921875,14.16015625,-31.73828125
1508291864.2272782,12.6953125,26.85546875,29.78515625,15.625,-2.44140625
1508291864.2293415,8.7890625,31.25,37.109375,18.5546875,-2.9296875
1508291864.2332478,2.9296875,33.203125,31.73828125,12.20703125,11.71875
1508291864.237154,6.34765625,33.203125,28.3203125,14.6484375,5.859375
1508291864.2410603,10.7421875,30.76171875,30.2734375,19.04296875,-20.99609375
1508291864.2449665,6.8359375,29.78515625,34.1796875,19.53125,26.3671875
1508291864.2488728,-5.859375,31.73828125,26.85546875,14.16015625,40.0390625
1508291864.252779,-5.859375,30.76171875,17.578125,7.32421875,7.8125
1508291864.2566853,9.765625,28.3203125,26.85546875,14.16015625,-5.859375
1508291864.2605915,18.06640625,30.76171875,31.25,23.4375,16.6015625
1508291864.2644978,8.30078125,34.66796875,15.625,21.484375,40.52734375
1508291864.268404,1.953125,29.78515625,5.859375,19.53125,23.92578125
1508291864.2723103,10.25390625,24.4140625,14.16015625,34.1796875,22.4609375
1508291864.2744105,13.671875,29.78515625,20.01953125,35.64453125,1.953125
1508291864.2783167,4.39453125,30.76171875,15.13671875,29.78515625,-2.9296875
1508291864.282223,-1.953125,25.390625,15.625,24.90234375,-7.8125
1508291864.2861292,2.9296875,21.484375,31.25,26.3671875,-26.85546875
1508291864.2900355,8.30078125,18.5546875,32.71484375,32.2265625,5.37109375
1508291864.2939417,2.9296875,17.578125,17.578125,33.69140625,0.0
1508291864.297848,-9.27734375,20.99609375,13.18359375,21.484375,-57.12890625
1508291864.3017542,-3.41796875,25.87890625,30.76171875,21.484375,-3.90625
1508291864.3056605,11.71875,29.296875,35.64453125,37.109375,19.53125
1508291864.3095667,11.71875,30.2734375,27.83203125,32.2265625,-34.1796875
1508291864.313473,-1.953125,23.92578125,25.87890625,24.4140625,-34.1796875
1508291864.3173792,-8.30078125,17.578125,32.71484375,28.3203125,-9.765625
1508291864.3339157,8.7890625,19.04296875,35.64453125,40.52734375,-6.8359375
1508291864.337822,22.4609375,20.01953125,23.4375,39.55078125,-21.97265625
1508291864.3417282,9.27734375,18.06640625,17.08984375,32.2265625,-10.7421875
1508291864.3456345,-3.90625,20.01953125,17.578125,26.85546875,-7.8125
1508291864.3495407,4.39453125,25.390625,13.18359375,29.78515625,-26.85546875
1508291864.353447,5.859375,24.4140625,5.37109375,28.80859375,-9.765625
1508291864.3573532,-0.9765625,23.92578125,-0.9765625,19.53125,14.16015625
1508291864.3612595,-11.71875,26.3671875,2.9296875,12.6953125,20.5078125
1508291864.3651657,-5.37109375,27.83203125,12.6953125,23.92578125,2.9296875
1508291864.369072,3.41796875,30.76171875,2.9296875,35.15625,-18.5546875
1508291864.3729782,0.9765625,33.69140625,9.27734375,34.1796875,-19.04296875
1508291864.3768845,0.0,34.1796875,17.578125,36.62109375,-26.85546875
1508291864.378969,3.90625,35.15625,15.625,42.96875,-52.734375
1508291864.3828752,11.71875,37.109375,19.53125,42.96875,-72.265625
1508291864.3867815,5.859375,33.69140625,20.5078125,34.66796875,-20.01953125
1508291864.3906877,-5.37109375,35.15625,25.390625,20.01953125,-4.39453125
1508291864.394594,-2.44140625,35.64453125,26.85546875,17.578125,-48.828125
1508291864.3985002,11.71875,32.71484375,27.34375,28.3203125,-13.18359375
1508291864.4024065,16.6015625,38.0859375,20.99609375,29.296875,38.0859375
1508291864.4063127,7.32421875,41.50390625,17.578125,27.34375,11.71875
1508291864.410219,6.8359375,39.0625,7.8125,25.87890625,-7.32421875
1508291864.4141252,12.6953125,38.57421875,1.46484375,30.2734375,-14.16015625
1508291864.4180315,12.6953125,32.2265625,22.94921875,36.62109375,18.06640625
1508291864.4219377,6.8359375,26.85546875,28.80859375,26.3671875,46.38671875
1508291864.424488,-8.7890625,25.87890625,18.5546875,12.6953125,20.99609375
1508291864.4283943,-8.30078125,22.94921875,25.390625,21.484375,37.59765625
1508291864.4323006,9.27734375,24.4140625,35.15625,27.34375,54.19921875
1508291864.4362068,16.11328125,28.80859375,34.66796875,19.53125,54.19921875
1508291864.440113,6.8359375,30.2734375,23.4375,6.8359375,37.109375
1508291864.4440193,3.41796875,28.3203125,13.671875,4.8828125,7.32421875
1508291864.4479256,17.578125,27.34375,18.06640625,20.01953125,-12.20703125
1508291864.4518318,22.94921875,25.87890625,33.69140625,34.1796875,-1.953125
1508291864.455738,0.0,23.4375,27.83203125,23.4375,-32.2265625
