timestamp,TP9,AF7,AF8,TP10,Right AUX
1508291749.7633572,11.23046875,17.578125,32.71484375,51.7578125,33.203125
1508291749.7672634,19.04296875,19.53125,30.2734375,54.19921875,59.5703125
1508291749.7711697,4.39453125,21.484375,26.3671875,33.69140625,16.11328125
1508291749.775076,-5.37109375,25.390625,41.9921875,27.34375,37.109375
1508291749.7789822,10.25390625,30.2734375,52.24609375,40.0390625,34.1796875
1508291749.7828884,10.25390625,32.2265625,46.38671875,44.43359375,5.859375
1508291749.7867947,4.39453125,31.73828125,38.0859375,29.296875,29.296875
1508291749.790701,0.48828125,32.2265625,38.0859375,18.06640625,-22.94921875
1508291749.7946072,7.8125,32.71484375,49.31640625,28.3203125,-53.22265625
1508291749.7985134,15.13671875,30.2734375,49.31640625,35.15625,-2.9296875
1508291749.8024197,11.23046875,28.3203125,36.62109375,28.3203125,6.34765625
1508291749.806326,-1.46484375,25.390625,34.1796875,6.34765625,32.2265625
1508291749.8083882,-14.6484375,23.4375,43.45703125,3.90625,21.484375
1508291749.8122945,0.48828125,23.92578125,49.8046875,20.99609375,15.13671875
1508291749.8162007,0.48828125,23.92578125,41.015625,14.16015625,40.52734375
1508291749.820107,-15.13671875,25.87890625,36.62109375,3.41796875,14.6484375
1508291749.8240132,-15.13671875,27.34375,39.55078125,7.32421875,17.08984375
1508291749.8279195,3.90625,23.92578125,33.203125,28.80859375,47.36328125
1508291749.8318257,12.20703125,24.90234375,25.390625,24.4140625,56.640625
1508291749.835732,6.8359375,29.296875,36.1328125,16.11328125,39.55078125
1508291749.8396382,-6.34765625,26.3671875,42.96875,17.578125,1.46484375
1508291749.8435445,-12.20703125,21.97265625,42.48046875,15.13671875,-4.8828125
1508291749.8474507,-5.37109375,16.11328125,44.921875,15.625,10.7421875
1508291749.851357,-5.859375,16.6015625,48.828125,7.8125,18.5546875
1508291749.868431,-31.73828125,21.484375,40.0390625,-1.46484375,19.04296875
1508291749.8723373,-21.484375,22.94921875,34.66796875,4.39453125,18.06640625
1508291749.8762436,13.18359375,22.4609375,40.0390625,21.484375,-15.625
1508291749.8801498,10.7421875,20.99609375,42.96875,26.85546875,-11.23046875
1508291749.884056,-14.16015625,25.390625,42.96875,5.37109375,23.4375
1508291749.8879623,-17.578125,29.78515625,31.25,-1.953125,16.11328125
1508291749.8918686,5.37109375,30.2734375,21.484375,11.23046875,20.99609375
1508291749.8957748,11.71875,31.25,17.578125,12.20703125,-2.9296875
1508291749.899681,-5.859375,27.34375,11.23046875,3.41796875,-6.34765625
1508291749.9035873,-18.5546875,20.5078125,2.44140625,-14.6484375,11.23046875
1508291749.9074936,-5.37109375,24.4140625,14.16015625,0.48828125,14.16015625
1508291749.9113998,2.9296875,29.78515625,25.87890625,20.99609375,17.578125
1508291749.912965,-6.8359375,27.83203125,12.6953125,6.34765625,20.01953125
1508291749.9168713,-18.06640625,27.34375,7.32421875,4.8828125,44.43359375
1508291749.9207776,-5.37109375,29.296875,15.13671875,15.13671875,42.96875
1508291749.9246838,8.7890625,28.3203125,11.71875,14.16015625,25.87890625
1508291749.92859,-3.90625,26.85546875,0.48828125,10.25390625,6.34765625
1508291749.9324963,-15.13671875,26.3671875,-2.9296875,4.39453125,19.53125
1508291749.9364026,0.48828125,25.87890625,12.6953125,3.90625,37.59765625
1508291749.9403088,13.671875,25.390625,39.0625,18.06640625,1.46484375
1508291749.944215,11.71875,23.92578125,42.96875,15.625,-31.73828125
1508291749.9481213,-7.32421875,24.90234375,39.0625,0.9765625,-9.765625
1508291749.9520276,-13.18359375,30.76171875,45.8984375,-2.44140625,0.9765625
1508291749.9559338,13.671875,34.66796875,38.57421875,14.16015625,-51.26953125
1508291749.9584975,19.04296875,37.59765625,31.25,25.390625,-45.8984375
1508291749.9624038,3.41796875,41.9921875,23.92578125,20.01953125,3.90625
1508291749.96631,-8.30078125,39.0625,21.484375,17.578125,44.43359375
1508291749.9702163,3.41796875,34.66796875,23.4375,25.390625,37.59765625
1508291749.9741225,16.6015625,30.76171875,21.97265625,25.390625,26.85546875
1508291749.9780288,10.7421875,27.83203125,20.01953125,10.25390625,57.6171875
1508291749.981935,-3.90625,31.25,22.4609375,-0.9765625,39.0625
1508291749.9858413,3.41796875,32.71484375,30.2734375,15.625,14.16015625
1508291749.9897475,17.08984375,33.203125,22.4609375,27.83203125,1.953125
1508291749.9936538,17.578125,37.59765625,23.92578125,20.01953125,-9.27734375
1508291749.99756,-0.9765625,38.0859375,33.203125,23.92578125,25.87890625
1508291750.0014663,-3.41796875,34.66796875,26.3671875,27.34375,21.97265625
1508291750.0031686,13.18359375,37.109375,36.62109375,28.3203125,-25.87890625
1508291750.0070748,17.08984375,40.0390625,47.36328125,36.62109375,-23.4375
1508291750.010981,-0.48828125,41.015625,44.43359375,38.57421875,25.87890625
1508291750.0148873,-11.23046875,42.96875,31.73828125,28.80859375,-2.44140625
1508291750.0187936,10.7421875,43.9453125,28.3203125,47.36328125,-14.16015625
1508291750.0226998,23.4375,41.9921875,26.85546875,60.05859375,3.90625
1508291750.026606,20.5078125,35.15625,23.92578125,50.78125,0.0
1508291750.0305123,15.13671875,32.2265625,18.5546875,63.96484375,-11.71875
1508291750.0344186,27.34375,38.57421875,12.20703125,74.21875,-1.46484375
1508291750.0383248,24.4140625,40.0390625,20.5078125,57.6171875,18.5546875
1508291750.042231,10.25390625,35.64453125,20.01953125,41.50390625,-14.6484375
1508291750.0461373,1.46484375,41.015625,8.7890625,22.94921875,-49.8046875
1508291750.048219,8.30078125,49.8046875,1.953125,31.73828125,-9.765625
1508291750.0521252,27.83203125,55.17578125,-7.32421875,53.22265625,14.16015625
1508291750.0560315,23.92578125,61.03515625,-17.08984375,40.0390625,9.765625
1508291750.0599377,15.13671875,63.4765625,-17.578125,29.78515625,-6.8359375
1508291750.063844,14.16015625,61.03515625,-20.5078125,27.83203125,-30.2734375
1508291750.0677502,23.92578125,58.59375,-16.11328125,35.64453125,-29.296875
1508291750.0716565,31.73828125,58.59375,-1.953125,42.96875,-15.625
1508291750.0755627,18.5546875,57.12890625,-4.39453125,29.78515625,-23.4375
1508291750.079469,5.37109375,54.6875,-2.9296875,47.8515625,-29.78515625
1508291750.0833752,31.25,50.78125,3.90625,107.421875,-9.27734375
1508291750.0872815,45.41015625,46.875,-9.765625,137.6953125,-0.9765625
1508291750.0911877,25.390625,45.8984375,-21.97265625,139.6484375,-21.484375
1508291750.0932312,14.16015625,48.33984375,-17.08984375,145.5078125,-32.71484375
1508291750.0971375,25.87890625,45.41015625,-7.32421875,167.48046875,-7.8125
1508291750.1010437,30.76171875,41.50390625,-10.7421875,181.15234375,15.625
1508291750.10495,21.97265625,43.45703125,-7.32421875,176.7578125,-4.39453125
1508291750.1088562,16.11328125,45.8984375,-6.8359375,172.8515625,-21.97265625
1508291750.1127625,9.765625,44.43359375,-10.25390625,178.22265625,-31.73828125
1508291750.1166687,15.625,43.45703125,-7.8125,184.5703125,-21.484375
1508291750.120575,18.5546875,40.0390625,-13.671875,173.828125,14.16015625
1508291750.1244812,5.859375,38.57421875,-4.8828125,166.50390625,44.921875
1508291750.1283875,-0.48828125,36.62109375,2.9296875,168.9453125,27.83203125
1508291750.1322937,17.08984375,34.1796875,0.9765625,175.78125,-1.46484375
1508291750.1362,27.34375,37.109375,6.34765625,174.31640625,20.5078125
1508291750.138262,15.625,42.96875,8.30078125,161.62109375,6.8359375
1508291750.1421683,6.8359375,43.45703125,5.37109375,162.59765625,1.953125
1508291750.1460745,21.97265625,42.48046875,10.25390625,174.8046875,-25.390625
1508291750.1499808,31.73828125,41.9921875,17.08984375,176.26953125,-40.52734375
1508291750.153887,20.5078125,38.0859375,18.06640625,170.41015625,18.5546875
1508291750.1577933,-3.41796875,32.71484375,18.5546875,161.1328125,39.55078125
1508291750.1616995,6.8359375,30.2734375,15.625,153.3203125,-19.53125
1508291750.1656058,31.25,30.76171875,23.92578125,150.87890625,-14.16015625
1508291750.169512,25.390625,34.66796875,34.66796875,162.109375,45.8984375
1508291750.1734183,13.18359375,38.0859375,22.4609375,156.73828125,27.34375
1508291750.1773245,16.11328125,36.62109375,19.53125,156.25,24.4140625
1508291750.1812308,35.15625,36.62109375,30.2734375,167.48046875,10.7421875
1508291750.1832933,43.9453125,38.0859375,31.25,167.48046875,5.37109375
1508291750.1871996,23.92578125,37.59765625,29.296875,162.59765625,38.0859375
1508291750.1911058,15.625,35.64453125,40.0390625,150.390625,55.6640625
1508291750.195012,32.71484375,34.1796875,51.26953125,152.83203125,36.1328125
1508291750.1989183,37.109375,37.109375,47.36328125,159.1796875,21.97265625
1508291750.2028246,25.87890625,37.59765625,29.296875,145.01953125,-7.32421875
1508291750.2067308,20.99609375,39.55078125,19.04296875,116.2109375,-12.20703125
1508291750.210637,41.50390625,41.9921875,42.96875,131.34765625,-6.8359375
1508291750.2145433,59.5703125,39.55078125,62.01171875,168.45703125,23.4375
1508291750.2184496,58.10546875,41.50390625,56.640625,164.0625,24.4140625
1508291750.2223558,24.4140625,48.33984375,52.24609375,124.51171875,-29.78515625
1508291750.226262,2.44140625,45.41015625,59.5703125,110.3515625,-38.57421875
1508291750.243336,16.11328125,39.0625,61.5234375,124.51171875,-16.6015625
1508291750.2472422,14.16015625,39.55078125,41.9921875,115.234375,-9.765625
1508291750.2511485,-11.71875,39.0625,36.62109375,88.8671875,6.34765625
1508291750.2550547,-10.7421875,37.109375,43.45703125,90.8203125,28.80859375
1508291750.258961,9.765625,34.66796875,38.57421875,108.3984375,-15.625
1508291750.2628672,5.859375,35.64453125,29.296875,100.5859375,-24.4140625
1508291750.2667735,-6.34765625,37.59765625,32.2265625,76.66015625,-22.94921875
1508291750.2706797,-6.8359375,37.59765625,46.875,55.6640625,-9.765625
1508291750.274586,11.23046875,35.64453125,44.921875,65.91796875,23.4375
1508291750.2784922,22.94921875,33.69140625,41.50390625,72.75390625,7.32421875
1508291750.2823985,14.6484375,37.59765625,44.43359375,65.4296875,27.34375
1508291750.2863047,1.953125,41.015625,50.78125,61.5234375,42.48046875
1508291750.2879229,13.671875,42.48046875,60.05859375,21.484375,26.3671875
1508291750.291829,23.4375,39.55078125,66.89453125,-29.296875,28.3203125
1508291750.2957354,14.6484375,32.2265625,75.68359375,-65.91796875,38.57421875
1508291750.2996416,2.44140625,26.3671875,71.2890625,-112.79296875,66.89453125
1508291750.3035479,6.8359375,32.2265625,62.98828125,-82.03125,43.9453125
1508291750.307454,18.5546875,38.0859375,59.5703125,-20.5078125,0.9765625
1508291750.3113604,17.578125,36.62109375,57.6171875,-3.41796875,-6.34765625
1508291750.3152666,6.8359375,32.71484375,55.17578125,5.37109375,6.8359375
1508291750.3191729,8.30078125,30.76171875,52.734375,20.01953125,15.13671875
1508291750.323079,23.4375,30.2734375,55.6640625,33.69140625,14.6484375
1508291750.3269854,26.85546875,29.296875,62.01171875,39.0625,-1.953125
1508291750.3308916,8.30078125,27.34375,53.22265625,39.55078125,-29.296875
1508291750.3329573,0.9765625,23.92578125,43.45703125,25.87890625,20.99609375
1508291750.3368635,21.97265625,30.2734375,39.55078125,10.25390625,50.29296875
1508291750.3407698,20.99609375,34.66796875,40.0390625,-18.06640625,18.5546875
1508291750.344676,-2.9296875,33.203125,36.62109375,-48.33984375,-11.71875
1508291750.3485823,4.8828125,34.1796875,31.73828125,-76.171875,-14.6484375
1508291750.3524885,20.99609375,30.2734375,35.64453125,-83.49609375,13.671875
1508291750.3563948,23.4375,26.85546875,43.45703125,-80.078125,55.17578125
1508291750.360301,22.4609375,24.4140625,49.8046875,-85.44921875,56.640625
1508291750.3642073,5.859375,21.484375,45.41015625,-108.3984375,18.5546875
1508291750.3681135,10.7421875,23.92578125,44.921875,-111.328125,25.87890625
1508291750.3720198,30.2734375,27.83203125,52.24609375,-82.03125,22.4609375
1508291750.375926,26.3671875,29.296875,48.33984375,-115.72265625,31.25
1508291750.3779874,2.44140625,26.85546875,41.015625,-187.5,49.8046875
1508291750.3818936,-4.39453125,24.90234375,40.52734375,-215.8203125,33.203125
1508291750.3858,14.16015625,27.34375,47.8515625,-208.0078125,20.5078125
1508291750.3897061,18.5546875,25.390625,47.36328125,-213.37890625,60.546875
1508291750.3936124,5.37109375,22.4609375,43.45703125,-232.91015625,79.1015625
1508291750.3975186,1.953125,27.34375,49.31640625,-235.3515625,44.43359375
1508291750.401425,18.06640625,29.78515625,62.5,-208.49609375,55.17578125
1508291750.4053311,25.87890625,29.296875,63.96484375,-175.78125,57.6171875
1508291750.4092374,20.01953125,30.76171875,53.22265625,-179.19921875,24.4140625
1508291750.4131436,-1.953125,29.296875,61.5234375,-173.828125,26.85546875
1508291750.41705,1.46484375,23.92578125,63.4765625,-138.18359375,34.1796875
1508291750.4209561,22.94921875,21.97265625,62.98828125,-117.1875,41.50390625
1508291750.423019,20.5078125,22.94921875,74.70703125,-109.86328125,62.5
1508291750.4269252,10.7421875,23.4375,77.63671875,-97.65625,27.34375
1508291750.4308314,11.71875,27.34375,70.3125,-67.3828125,-2.44140625
1508291750.4347377,27.83203125,29.296875,63.96484375,-37.109375,28.3203125
1508291750.438644,28.3203125,30.2734375,62.98828125,-22.94921875,30.76171875
1508291750.4425502,10.25390625,31.25,53.7109375,-26.85546875,-28.3203125
1508291750.4464564,4.39453125,29.296875,50.29296875,-23.92578125,-12.6953125
1508291750.4503627,19.53125,27.83203125,51.26953125,-4.8828125,27.34375
1508291750.454269,26.3671875,27.34375,55.17578125,-2.44140625,50.29296875
1508291750.4581752,3.41796875,25.390625,66.89453125,-3.41796875,68.359375
1508291750.4620814,-5.859375,27.83203125,60.05859375,0.9765625,20.99609375
1508291750.4659877,10.7421875,34.66796875,57.6171875,23.92578125,9.765625
1508291750.4680536,15.13671875,38.0859375,57.12890625,33.203125,23.92578125
1508291750.4719598,11.23046875,33.69140625,45.41015625,28.80859375,9.765625
1508291750.475866,-5.37109375,30.76171875,39.0625,26.85546875,-26.85546875
1508291750.4797723,-2.44140625,29.296875,45.41015625,37.59765625,-3.90625
1508291750.4836786,14.6484375,26.85546875,55.17578125,73.2421875,11.23046875
1508291750.4875848,13.671875,25.390625,59.08203125,111.81640625,13.671875
1508291750.491491,-3.90625,24.90234375,47.36328125,111.328125,16.11328125
1508291750.4953973,-6.34765625,29.296875,35.15625,105.95703125,-33.69140625
1508291750.4993036,15.625,28.80859375,48.828125,140.13671875,-11.71875
1508291750.5032098,20.5078125,25.87890625,48.828125,169.43359375,4.8828125
1508291750.507116,-3.90625,27.83203125,32.2265625,164.55078125,-29.78515625
1508291750.5110223,-11.71875,28.3203125,29.78515625,164.0625,-21.97265625
1508291750.5131035,5.859375,28.3203125,31.73828125,182.12890625,10.7421875
1508291750.5170097,13.671875,29.296875,24.4140625,190.91796875,2.9296875
1508291750.520916,8.7890625,24.90234375,18.06640625,190.91796875,-16.11328125
1508291750.5248222,10.25390625,25.390625,17.578125,198.2421875,-8.7890625
1508291750.5287285,5.859375,30.2734375,25.390625,193.359375,-0.9765625
1508291750.5326347,-17.578125,29.78515625,30.2734375,176.7578125,-12.20703125
1508291750.536541,-28.80859375,28.3203125,25.87890625,173.828125,-40.52734375
1508291750.5404472,-36.62109375,29.296875,30.76171875,163.0859375,-29.78515625
1508291750.5443535,-37.109375,24.4140625,42.96875,163.0859375,-9.765625
1508291750.5482597,-31.25,19.04296875,46.875,167.48046875,-0.48828125
1508291750.552166,-34.66796875,23.92578125,42.96875,157.71484375,-15.13671875
1508291750.5560722,-51.7578125,24.90234375,40.0390625,141.11328125,-19.53125
1508291750.558119,-44.43359375,25.390625,44.43359375,150.390625,-8.7890625
1508291750.5620253,-20.01953125,28.3203125,45.41015625,164.55078125,-5.859375
1508291750.5659316,-20.5078125,26.3671875,41.9921875,159.1796875,11.71875
1508291750.5698378,-34.66796875,26.85546875,43.45703125,148.4375,36.1328125
1508291750.573744,-40.0390625,27.83203125,43.45703125,140.13671875,28.3203125
1508291750.5776503,-24.4140625,31.73828125,39.55078125,149.4140625,-4.8828125
1508291750.5815566,-15.13671875,32.71484375,44.43359375,148.92578125,-15.13671875
1508291750.5854628,-22.94921875,33.203125,46.875,128.41796875,-27.83203125
1508291750.589369,-36.1328125,35.15625,40.52734375,99.12109375,-24.4140625
1508291750.5932753,-26.85546875,34.1796875,30.76171875,96.6796875,-39.55078125
1508291750.5971816,-14.6484375,35.64453125,28.80859375,95.703125,-36.62109375
1508291750.6010878,-22.4609375,35.64453125,38.0859375,82.51953125,16.6015625
1508291750.6181579,-37.109375,34.66796875,35.64453125,69.3359375,-1.46484375
1508291750.622064,-36.1328125,33.203125,43.45703125,61.03515625,-12.20703125
1508291750.6259704,-19.53125,33.69140625,53.22265625,57.12890625,24.4140625
1508291750.6298766,-19.53125,33.69140625,47.36328125,43.45703125,20.99609375
1508291750.6337829,-36.62109375,31.25,35.15625,23.4375,3.41796875
1508291750.637689,-36.1328125,33.69140625,23.92578125,15.13671875,-5.859375
1508291750.6415954,-20.5078125,36.1328125,25.87890625,27.83203125,-4.8828125
1508291750.6455016,-17.08984375,32.71484375,38.57421875,36.1328125,-1.953125
1508291750.6494079,-30.76171875,29.296875,52.24609375,19.04296875,-33.69140625
1508291750.653314,-38.0859375,29.296875,46.38671875,-3.41796875,-21.484375
1508291750.6572204,-15.13671875,30.2734375,44.921875,10.7421875,-5.859375
1508291750.6611266,-6.34765625,27.34375,45.41015625,25.390625,-25.390625
1508291750.6631975,-19.53125,27.83203125,28.80859375,8.7890625,-30.76171875
1508291750.6671038,-27.83203125,27.34375,18.5546875,0.0,-29.78515625
1508291750.67101,-12.6953125,21.484375,27.34375,7.8125,15.13671875
1508291750.6749163,0.0,22.94921875,34.1796875,4.39453125,22.94921875
1508291750.6788225,-18.06640625,23.92578125,28.3203125,-0.48828125,12.20703125
1508291750.6827288,-36.1328125,20.5078125,21.97265625,-13.18359375,5.859375
1508291750.686635,-31.25,25.87890625,26.3671875,-11.71875,-41.015625
1508291750.6905413,-11.71875,26.3671875,37.109375,-2.44140625,-28.3203125
1508291750.6944475,-7.8125,22.94921875,34.66796875,-8.30078125,0.9765625
1508291750.6983538,-17.08984375,26.3671875,27.83203125,-13.18359375,-42.48046875
1508291750.70226,-19.53125,23.92578125,48.828125,-9.27734375,-0.9765625
1508291750.7061663,-4.39453125,21.484375,56.640625,5.37109375,29.78515625
1508291750.7082212,6.8359375,22.4609375,55.6640625,12.20703125,-17.08984375
1508291750.7121274,1.953125,23.92578125,55.17578125,-7.32421875,-19.53125
1508291750.7160337,-6.8359375,23.92578125,52.734375,-28.80859375,-11.71875
1508291750.71994,15.625,24.4140625,54.6875,-11.23046875,38.57421875
1508291750.7238462,34.66796875,31.73828125,51.26953125,-18.06640625,84.9609375
1508291750.7277524,18.06640625,36.62109375,41.015625,-54.19921875,78.125
1508291750.7316587,-1.46484375,35.15625,34.66796875,-78.125,30.76171875
1508291750.735565,1.953125,33.69140625,36.62109375,-73.73046875,2.9296875
1508291750.7394712,12.6953125,30.2734375,29.78515625,-69.82421875,32.71484375
1508291750.7433774,17.578125,29.296875,22.94921875,-88.37890625,59.5703125
1508291750.7472837,2.9296875,37.109375,26.3671875,-91.796875,18.5546875
1508291750.75119,-4.8828125,37.59765625,15.625,-88.37890625,0.48828125
1508291750.7532735,7.8125,33.69140625,7.8125,-80.078125,19.53125
1508291750.7571797,15.625,33.69140625,14.16015625,-71.77734375,4.8828125
1508291750.761086,10.7421875,31.25,21.484375,-67.87109375,5.859375
1508291750.7649922,1.46484375,31.25,23.4375,-68.84765625,-6.8359375
1508291750.7688985,12.20703125,35.64453125,27.34375,-64.94140625,-19.53125
1508291750.7728047,13.671875,33.203125,30.76171875,-60.546875,13.671875
1508291750.776711,-0.9765625,29.296875,23.92578125,-71.2890625,7.8125
1508291750.7806172,-10.25390625,34.66796875,17.08984375,-71.2890625,-1.953125
1508291750.7845235,4.39453125,33.203125,14.16015625,-58.10546875,-4.39453125
1508291750.7884297,18.5546875,31.25,26.85546875,-50.78125,-1.46484375
1508291750.792336,11.23046875,34.66796875,27.34375,-45.41015625,-4.8828125
1508291750.7962422,-0.9765625,34.1796875,12.6953125,-55.17578125,-19.53125
1508291750.7982852,1.953125,31.25,14.16015625,-47.8515625,-20.5078125
1508291750.8021915,14.6484375,25.390625,24.90234375,-24.90234375,-18.06640625
1508291750.8060977,14.16015625,27.34375,27.34375,-30.2734375,-25.390625
1508291750.810004,0.9765625,33.203125,30.2734375,-45.41015625,-1.953125
1508291750.8139102,-1.46484375,33.69140625,33.69140625,-41.9921875,2.44140625
1508291750.8178165,11.23046875,30.2734375,25.87890625,-25.390625,-20.5078125
1508291750.8217227,5.859375,27.34375,18.06640625,-34.1796875,-23.4375
1508291750.825629,-6.8359375,29.296875,11.71875,-52.24609375,-36.62109375
1508291750.8295352,-13.671875,30.76171875,18.5546875,-54.6875,-42.48046875
1508291750.8334415,-1.953125,29.78515625,36.1328125,-37.59765625,-17.08984375
1508291750.8373477,3.41796875,30.76171875,23.4375,-27.83203125,-9.27734375
1508291750.841254,-18.5546875,28.3203125,9.27734375,-44.921875,3.41796875
1508291750.8433168,-28.80859375,27.34375,11.71875,-49.8046875,-9.27734375
1508291750.847223,-11.71875,34.1796875,20.5078125,-33.69140625,-42.48046875
1508291750.8511293,-0.9765625,37.59765625,27.83203125,-30.76171875,-36.62109375
1508291750.8550355,-3.41796875,37.109375,24.90234375,-38.0859375,-20.5078125
1508291750.8589418,-16.11328125,32.71484375,15.13671875,-43.9453125,-45.41015625
1508291750.862848,-15.13671875,28.80859375,16.11328125,-39.0625,-11.23046875
1508291750.8667543,-8.30078125,30.2734375,18.06640625,-32.71484375,58.59375
1508291750.8706605,-7.8125,30.76171875,11.23046875,-46.875,6.8359375
1508291750.8745668,-19.04296875,33.69140625,21.484375,-53.7109375,1.953125
1508291750.878473,-26.85546875,32.71484375,19.04296875,-43.9453125,-10.25390625
1508291750.8823793,-9.27734375,30.76171875,22.94921875,-33.69140625,-24.4140625
1508291750.8862855,-1.46484375,28.80859375,39.55078125,-31.25,-3.41796875
1508291750.888349,-9.765625,24.90234375,41.50390625,-32.71484375,26.85546875
1508291750.8922553,-17.08984375,20.5078125,36.1328125,-37.109375,32.2265625
1508291750.8961616,-1.46484375,16.6015625,41.9921875,-34.66796875,-26.85546875
1508291750.9000678,4.39453125,20.99609375,47.8515625,-29.78515625,-50.29296875
1508291750.903974,-11.23046875,28.3203125,39.55078125,-37.109375,-27.83203125
1508291750.9078803,-21.97265625,34.1796875,33.69140625,-48.33984375,6.8359375
1508291750.9117866,-14.6484375,34.1796875,27.34375,-38.57421875,3.41796875
1508291750.9156928,3.90625,34.1796875,27.83203125,-26.85546875,-5.37109375
1508291750.919599,8.30078125,36.1328125,39.0625,-22.4609375,23.4375
1508291750.9235053,-3.90625,39.55078125,31.25,-30.76171875,14.6484375
1508291750.9274116,-5.859375,40.52734375,20.99609375,-24.90234375,16.11328125
1508291750.9313178,1.46484375,35.64453125,22.94921875,-6.34765625,34.1796875
1508291750.9333808,5.859375,34.66796875,21.97265625,-2.9296875,-12.20703125
1508291750.937287,2.44140625,38.57421875,12.20703125,-7.32421875,-19.04296875
1508291750.9411933,2.44140625,39.55078125,8.7890625,0.9765625,5.859375
1508291750.9450996,1.953125,32.2265625,17.08984375,2.9296875,8.30078125
1508291750.9490058,-9.765625,25.87890625,24.4140625,-12.20703125,19.53125
1508291750.952912,-22.94921875,26.85546875,21.484375,-18.06640625,15.625
1508291750.9568183,-42.48046875,21.484375,19.53125,-35.64453125,-24.90234375
1508291750.9607246,-20.5078125,24.90234375,35.64453125,-18.06640625,-38.0859375
1508291750.9646308,-0.48828125,28.80859375,42.96875,4.8828125,-7.32421875
1508291750.968537,-14.6484375,25.87890625,32.71484375,0.0,5.859375
1508291750.9724433,-20.01953125,32.71484375,27.34375,0.9765625,-10.25390625
1508291750.9763496,-6.8359375,37.109375,41.9921875,5.37109375,27.34375
1508291750.993424,7.8125,35.64453125,51.7578125,17.578125,75.1953125
1508291750.9973302,7.32421875,31.25,42.96875,12.20703125,21.97265625
1508291751.0012364,-5.859375,27.34375,48.828125,1.46484375,10.7421875
1508291751.0051427,-10.7421875,25.390625,58.59375,16.6015625,60.05859375
1508291751.009049,-3.90625,24.90234375,56.15234375,28.80859375,63.4765625
1508291751.0129552,-7.8125,24.4140625,43.9453125,14.6484375,41.015625
1508291751.0168614,-25.390625,29.296875,47.36328125,1.46484375,-15.625
1508291751.0207677,-24.90234375,35.15625,51.7578125,3.41796875,-72.75390625
1508291751.024674,-7.32421875,37.59765625,45.41015625,18.06640625,-71.77734375
1508291751.0285802,-10.7421875,35.15625,41.50390625,17.08984375,-47.36328125
1508291751.0324864,-20.5078125,29.296875,42.96875,-0.48828125,-36.1328125
1508291751.0363927,-30.76171875,27.83203125,51.7578125,-5.37109375,-17.08984375
1508291751.0384555,-21.484375,28.80859375,51.26953125,3.90625,-31.25
1508291751.0423617,-7.8125,31.25,45.8984375,9.27734375,-11.23046875
1508291751.046268,-10.25390625,37.59765625,42.96875,3.90625,27.83203125
1508291751.0501742,-23.92578125,38.57421875,37.109375,-9.765625,26.3671875
1508291751.0540805,-20.5078125,31.73828125,40.52734375,-3.90625,23.92578125
1508291751.0579867,-3.41796875,26.3671875,42.48046875,6.8359375,23.92578125
1508291751.061893,0.48828125,28.80859375,45.41015625,3.41796875,25.390625
1508291751.0657992,-13.18359375,32.71484375,59.08203125,-4.39453125,16.6015625
1508291751.0697055,-14.6484375,31.73828125,40.52734375,-3.90625,-31.73828125
1508291751.0736117,-4.8828125,31.73828125,31.25,-0.9765625,-43.45703125
1508291751.077518,-5.859375,34.1796875,51.7578125,0.9765625,-17.08984375
1508291751.0814242,-14.6484375,33.69140625,49.31640625,-0.9765625,-36.62109375
1508291751.082989,-28.3203125,30.2734375,36.62109375,-14.6484375,-30.2734375
1508291751.0868952,-16.6015625,27.34375,38.57421875,-2.44140625,-3.90625
1508291751.0908015,-6.34765625,25.87890625,42.48046875,3.90625,-2.9296875
1508291751.0947077,-21.97265625,26.3671875,43.45703125,-7.8125,-36.62109375
1508291751.098614,-35.64453125,31.73828125,44.921875,-24.4140625,-29.296875
1508291751.1025202,-26.3671875,36.62109375,47.36328125,-24.90234375,24.4140625
1508291751.1064265,-15.625,39.0625,50.29296875,-16.11328125,34.1796875
1508291751.1103327,-20.99609375,41.9921875,44.921875,-17.578125,19.53125
1508291751.114239,-32.71484375,39.55078125,37.109375,-26.85546875,-11.23046875
1508291751.1181452,-36.1328125,30.76171875,36.1328125,-26.3671875,-25.87890625
1508291751.1220515,-22.4609375,21.97265625,47.36328125,-4.39453125,25.390625
1508291751.1259577,-20.5078125,21.484375,57.12890625,0.9765625,40.0390625
1508291751.1280198,-35.15625,22.4609375,48.33984375,-18.06640625,-3.90625
1508291751.131926,-31.25,25.87890625,50.78125,-20.01953125,-20.99609375
1508291751.1358323,-4.8828125,33.203125,59.5703125,9.765625,10.7421875
1508291751.1397386,3.90625,35.64453125,53.7109375,23.4375,12.20703125
1508291751.1436448,-15.625,36.62109375,49.8046875,8.30078125,-3.90625
1508291751.147551,-30.2734375,42.96875,58.10546875,-1.46484375,4.39453125
1508291751.1514573,-21.484375,40.0390625,64.94140625,16.6015625,-13.18359375
1508291751.1553636,-19.53125,31.25,63.4765625,21.97265625,-31.73828125
1508291751.1592698,-28.3203125,26.85546875,62.5,7.32421875,-34.66796875
1508291751.163176,-20.01953125,28.3203125,64.94140625,22.4609375,-1.953125
1508291751.1670823,-0.9765625,31.25,57.6171875,49.8046875,-2.9296875
1508291751.1709886,-6.34765625,31.73828125,50.29296875,41.9921875,-15.13671875
1508291751.173051,-11.23046875,31.73828125,50.29296875,29.296875,33.203125
1508291751.1769574,-32.71484375,26.85546875,50.29296875,20.5078125,43.9453125
1508291751.1808636,-32.71484375,20.99609375,51.26953125,20.99609375,22.4609375
1508291751.1847699,-9.765625,17.578125,58.10546875,34.1796875,21.97265625
1508291751.188676,-18.5546875,12.6953125,68.359375,35.64453125,0.0
1508291751.1925824,-28.80859375,14.6484375,62.98828125,35.15625,7.32421875
1508291751.1964886,-31.25,19.53125,63.96484375,39.0625,24.90234375
1508291751.2003949,-6.8359375,23.92578125,65.4296875,52.734375,-10.25390625
1508291751.204301,4.8828125,26.3671875,65.91796875,55.17578125,-2.9296875
1508291751.2082074,-9.765625,26.3671875,72.265625,51.7578125,56.15234375
1508291751.2121136,-16.6015625,27.83203125,70.80078125,45.8984375,88.8671875
1508291751.2160199,-2.9296875,25.390625,72.75390625,53.22265625,85.9375
1508291751.2180855,8.7890625,20.99609375,69.82421875,58.10546875,56.640625
1508291751.2219918,0.9765625,22.94921875,62.5,52.24609375,48.828125
1508291751.225898,-17.08984375,25.87890625,49.8046875,40.0390625,39.0625
1508291751.2298043,-2.9296875,27.34375,42.96875,43.9453125,-11.23046875
1508291751.2337105,18.5546875,29.78515625,39.55078125,51.7578125,-7.32421875
1508291751.2376168,4.8828125,26.85546875,36.62109375,44.921875,33.69140625
1508291751.241523,-11.23046875,23.92578125,33.69140625,32.71484375,10.7421875
1508291751.2454293,-12.6953125,21.97265625,35.15625,26.3671875,-30.76171875
1508291751.2493355,-4.8828125,19.04296875,45.8984375,41.50390625,-16.6015625
1508291751.2532418,-5.859375,20.01953125,41.015625,47.8515625,14.6484375
1508291751.257148,-15.625,27.34375,26.3671875,38.0859375,1.46484375
1508291751.2610543,-14.16015625,34.1796875,20.99609375,38.57421875,7.8125
1508291751.2631354,1.46484375,36.62109375,21.97265625,49.8046875,33.203125
1508291751.2670417,10.7421875,38.57421875,20.99609375,54.19921875,26.85546875
1508291751.270948,2.44140625,38.0859375,20.01953125,50.29296875,15.13671875
1508291751.2748542,-8.30078125,33.203125,19.04296875,43.9453125,10.7421875
1508291751.2787604,-0.48828125,29.296875,24.4140625,50.29296875,24.4140625
1508291751.2826667,12.6953125,32.71484375,27.34375,56.15234375,9.765625
1508291751.286573,10.25390625,33.203125,19.53125,53.22265625,-51.7578125
1508291751.2904792,-2.44140625,31.73828125,12.6953125,41.015625,-32.2265625
1508291751.2943854,2.9296875,36.1328125,25.390625,56.15234375,34.1796875
1508291751.2982917,20.5078125,35.15625,26.85546875,62.5,21.484375
1508291751.302198,16.6015625,35.15625,22.4609375,39.0625,-25.390625
1508291751.3061042,-7.8125,29.78515625,25.87890625,31.25,3.41796875
1508291751.3086505,-17.08984375,19.04296875,20.5078125,36.62109375,26.3671875
1508291751.3125567,-2.44140625,18.5546875,16.6015625,47.8515625,-17.578125
1508291751.316463,0.0,21.97265625,17.08984375,47.8515625,-0.48828125
1508291751.3203692,-15.625,27.83203125,15.625,44.921875,32.71484375
1508291751.3242755,-12.6953125,24.90234375,12.6953125,34.1796875,30.2734375
1508291751.3281817,12.20703125,22.4609375,11.71875,49.31640625,14.16015625
1508291751.332088,20.99609375,33.203125,15.13671875,52.734375,-18.06640625
1508291751.3359942,5.37109375,34.66796875,26.3671875,35.15625,-31.73828125
1508291751.3399005,-14.6484375,32.71484375,32.71484375,36.1328125,-3.90625
1508291751.3438067,-8.7890625,34.66796875,32.71484375,54.19921875,18.06640625
1508291751.347713,4.39453125,31.25,34.66796875,74.70703125,29.296875
1508291751.3516192,2.9296875,32.2265625,37.109375,100.09765625,28.80859375
1508291751.3681927,-9.27734375,34.66796875,34.66796875,113.28125,38.0859375
1508291751.372099,0.48828125,40.0390625,37.59765625,121.58203125,54.6875
1508291751.3760052,18.5546875,46.38671875,43.9453125,143.06640625,20.01953125
1508291751.3799114,20.99609375,40.52734375,50.78125,158.203125,13.18359375
1508291751.3838177,3.90625,35.15625,46.38671875,147.4609375,18.5546875
1508291751.387724,-4.39453125,34.1796875,32.71484375,129.39453125,-27.83203125
1508291751.3916302,8.7890625,32.71484375,47.8515625,136.23046875,-11.23046875
1508291751.3955364,8.30078125,29.78515625,66.40625,143.5546875,3.41796875
1508291751.3994427,-1.46484375,28.3203125,71.77734375,138.18359375,33.69140625
1508291751.403349,-12.20703125,30.2734375,74.70703125,119.140625,18.06640625
1508291751.4072552,-0.48828125,31.73828125,84.47265625,118.1640625,-23.4375
1508291751.4111614,11.71875,33.69140625,95.21484375,137.6953125,24.90234375
1508291751.413224,3.41796875,36.1328125,83.49609375,123.53515625,-1.46484375
1508291751.4171302,-14.6484375,32.71484375,72.265625,100.5859375,-20.99609375
1508291751.4210365,-10.25390625,34.1796875,77.63671875,114.2578125,18.06640625
1508291751.4249427,0.48828125,37.59765625,77.63671875,109.86328125,27.83203125
1508291751.428849,-1.953125,37.59765625,70.3125,84.47265625,20.99609375
1508291751.4327552,-16.11328125,36.62109375,65.4296875,69.82421875,-27.83203125
1508291751.4366615,-20.01953125,34.1796875,71.2890625,59.08203125,-4.8828125
1508291751.4405677,-5.859375,30.76171875,83.49609375,58.59375,14.6484375
1508291751.444474,-1.953125,32.2265625,83.49609375,55.17578125,-15.625
1508291751.4483802,-18.06640625,33.203125,69.3359375,28.3203125,-20.99609375
1508291751.4522865,-11.71875,29.296875,80.078125,22.94921875,2.9296875
1508291751.4561927,14.16015625,33.69140625,98.6328125,60.05859375,8.30078125
1508291751.458254,15.13671875,36.62109375,106.4453125,68.84765625,2.9296875
1508291751.4621603,-18.5546875,31.73828125,118.1640625,21.484375,22.94921875
1508291751.4660666,-35.64453125,26.85546875,131.8359375,-4.8828125,20.5078125
1508291751.4699728,-9.765625,25.390625,132.32421875,40.52734375,8.7890625
1508291751.473879,-0.9765625,24.4140625,120.1171875,70.80078125,15.13671875
1508291751.4777853,-15.13671875,21.97265625,109.86328125,74.70703125,18.5546875
1508291751.4816916,-24.90234375,23.92578125,101.07421875,79.58984375,2.44140625
1508291751.4855978,-7.32421875,27.34375,99.609375,101.07421875,18.06640625
1508291751.489504,5.859375,29.296875,93.26171875,121.09375,21.484375
1508291751.4934103,2.9296875,28.80859375,97.16796875,114.2578125,4.39453125
1508291751.4973166,-11.71875,23.4375,109.375,114.74609375,51.26953125
1508291751.5012228,-19.53125,20.99609375,95.703125,118.1640625,43.45703125
1508291751.5030334,-10.7421875,24.4140625,92.7734375,123.53515625,16.11328125
1508291751.5069396,-8.30078125,23.92578125,86.9140625,128.41796875,14.6484375
1508291751.510846,-10.25390625,23.92578125,68.84765625,124.0234375,27.83203125
1508291751.5147521,-10.7421875,25.390625,59.08203125,124.51171875,21.484375
1508291751.5186584,-2.44140625,24.4140625,61.03515625,136.71875,5.37109375
1508291751.5225646,-2.9296875,16.6015625,72.265625,135.25390625,26.3671875
1508291751.526471,-8.7890625,16.6015625,75.68359375,125.48828125,12.20703125
1508291751.5303771,-26.3671875,22.94921875,67.87109375,123.046875,-15.625
1508291751.5342834,-19.53125,22.94921875,65.4296875,123.046875,-8.30078125
1508291751.5381896,-7.8125,26.85546875,75.1953125,129.39453125,-14.16015625
1508291751.542096,-12.6953125,31.25,71.2890625,134.27734375,-38.0859375
1508291751.5460021,-21.97265625,30.76171875,63.96484375,118.65234375,-19.04296875
1508291751.548067,-16.6015625,27.83203125,61.03515625,127.9296875,-25.390625
1508291751.5519733,-0.48828125,20.5078125,64.94140625,135.7421875,-20.99609375
1508291751.5558796,-6.8359375,15.13671875,61.5234375,124.0234375,-26.3671875
1508291751.5597858,-24.4140625,15.625,60.546875,114.2578125,-45.8984375
1508291751.563692,-27.34375,17.08984375,73.73046875,109.375,-62.5
1508291751.5675983,-15.13671875,15.625,82.51953125,136.71875,-57.6171875
1508291751.5715046,-9.27734375,14.6484375,81.54296875,124.0234375,-18.5546875
1508291751.5754108,-16.6015625,20.01953125,62.01171875,60.546875,-36.62109375
1508291751.579317,-20.01953125,24.4140625,56.15234375,17.578125,-34.1796875
1508291751.5832233,-2.9296875,24.90234375,69.82421875,-1.953125,13.18359375
1508291751.5871296,3.90625,22.94921875,55.17578125,-29.296875,13.18359375
1508291751.5910358,-11.23046875,19.04296875,42.48046875,-60.05859375,15.625
1508291751.5931182,-26.85546875,14.6484375,44.43359375,-78.125,0.0
1508291751.5970244,-12.6953125,14.6484375,41.015625,-73.73046875,-8.7890625
1508291751.6009307,5.859375,14.16015625,31.73828125,-83.49609375,1.953125
1508291751.604837,0.48828125,17.08984375,34.66796875,-104.4921875,-4.8828125
1508291751.6087432,-14.16015625,23.4375,39.0625,-112.3046875,-4.8828125
1508291751.6126494,-7.32421875,23.92578125,33.203125,-103.515625,0.48828125
1508291751.6165557,8.30078125,29.296875,24.90234375,-93.75,2.44140625
1508291751.620462,6.8359375,28.80859375,17.08984375,-106.4453125,-52.24609375
1508291751.6243682,-8.7890625,20.01953125,33.203125,-111.81640625,-72.265625
1508291751.6282744,-8.30078125,22.4609375,49.8046875,-92.28515625,-30.2734375
1508291751.6321807,25.390625,15.625,48.828125,-69.3359375,-17.578125
1508291751.636087,20.99609375,11.71875,49.31640625,-69.82421875,-26.85546875
1508291751.6381295,-12.20703125,24.90234375,41.9921875,-85.44921875,-7.8125
1508291751.6420357,-19.04296875,28.3203125,29.78515625,-85.9375,-11.23046875
1508291751.645942,0.0,22.94921875,32.71484375,-69.3359375,-35.15625
1508291751.6498482,18.06640625,20.5078125,43.9453125,-63.96484375,-22.4609375
1508291751.6537545,11.23046875,18.5546875,48.33984375,-63.4765625,-13.671875
1508291751.6576607,-6.34765625,16.6015625,44.921875,-76.171875,-10.7421875
1508291751.661567,-1.953125,17.578125,39.55078125,-79.58984375,-35.15625
1508291751.6654732,13.18359375,17.08984375,39.0625,-71.77734375,-45.8984375
1508291751.6693795,11.23046875,16.6015625,40.52734375,-69.82421875,-29.296875
1508291751.6732857,2.44140625,23.92578125,34.66796875,-73.73046875,-60.546875
1508291751.677192,10.7421875,31.25,40.0390625,-64.94140625,-71.77734375
1508291751.6810982,23.4375,28.80859375,48.33984375,-43.9453125,-47.36328125
1508291751.683162,23.4375,26.85546875,52.24609375,-46.875,-31.25
1508291751.6870682,3.41796875,23.4375,51.26953125,-55.17578125,-14.16015625
1508291751.6909745,-7.32421875,19.53125,54.19921875,-47.8515625,-9.765625
1508291751.6948807,8.30078125,20.5078125,68.84765625,-32.71484375,-26.85546875
1508291751.698787,25.87890625,23.92578125,73.2421875,-35.64453125,-28.80859375
1508291751.7026932,21.484375,23.92578125,57.6171875,-45.8984375,-24.4140625
1508291751.7065995,4.8828125,24.4140625,46.38671875,-62.01171875,-73.2421875
1508291751.7105057,15.13671875,28.3203125,62.5,-55.6640625,-92.28515625
1508291751.714412,22.94921875,28.80859375,70.80078125,-29.296875,-66.40625
1508291751.7183182,18.06640625,28.3203125,63.4765625,-34.66796875,-44.43359375
1508291751.7222245,6.34765625,30.76171875,62.98828125,-48.33984375,-24.4140625
1508291751.7261307,11.71875,31.25,82.51953125,-27.34375,-11.71875
1508291751.7432706,33.203125,28.80859375,100.09765625,5.37109375,-19.04296875
1508291751.747177,28.3203125,29.78515625,87.40234375,3.41796875,-22.4609375
1508291751.7510831,11.71875,30.2734375,75.1953125,-12.20703125,-9.765625
1508291751.7549894,12.20703125,26.85546875,72.265625,-4.39453125,-20.99609375
1508291751.7588956,22.94921875,29.78515625,69.3359375,5.859375,-54.6875
1508291751.762802,21.97265625,34.66796875,60.05859375,-9.27734375,-50.78125
1508291751.7667081,2.9296875,37.109375,61.03515625,-19.04296875,4.8828125
1508291751.7706144,-7.32421875,33.69140625,69.82421875,-14.16015625,12.6953125
1508291751.7745206,4.39453125,27.83203125,69.3359375,0.9765625,-26.85546875
1508291751.778427,15.13671875,26.3671875,63.4765625,0.9765625,-51.26953125
1508291751.7823331,16.6015625,23.92578125,65.91796875,-8.7890625,-27.34375
1508291751.7862394,9.765625,32.71484375,68.359375,-1.953125,-61.03515625
1508291751.788282,20.01953125,41.9921875,66.89453125,5.859375,-77.63671875
1508291751.7921882,25.87890625,36.62109375,65.4296875,13.671875,-18.06640625
1508291751.7960944,18.06640625,30.2734375,63.4765625,11.23046875,-9.765625
1508291751.8000007,3.41796875,27.83203125,64.94140625,-1.953125,-17.578125
1508291751.803907,6.34765625,25.87890625,63.96484375,1.46484375,-43.45703125
1508291751.8078132,20.01953125,20.5078125,66.40625,7.32421875,-29.296875
1508291751.8117194,14.6484375,18.06640625,66.89453125,11.23046875,-27.34375
1508291751.8156257,5.859375,23.4375,69.82421875,12.20703125,-54.19921875
1508291751.819532,10.25390625,29.296875,71.2890625,16.11328125,-47.8515625
1508291751.8234382,22.94921875,30.2734375,60.546875,12.6953125,-57.12890625
1508291751.8273444,27.34375,25.87890625,72.265625,10.25390625,-23.4375
1508291751.8312507,11.71875,23.92578125,86.42578125,8.7890625,-1.46484375
1508291751.833208,-1.953125,20.99609375,84.9609375,2.44140625,0.9765625
1508291751.8371143,19.53125,18.06640625,89.84375,19.04296875,-17.578125
1508291751.8410206,28.80859375,21.97265625,94.7265625,41.015625,-5.37109375
1508291751.8449268,27.34375,26.3671875,88.8671875,44.43359375,10.25390625
1508291751.848833,22.94921875,32.2265625,80.56640625,50.78125,-5.37109375
1508291751.8527393,18.5546875,36.1328125,91.796875,65.4296875,2.9296875
1508291751.8566456,19.04296875,33.69140625,100.09765625,60.546875,8.30078125
1508291751.8605518,11.23046875,25.390625,99.609375,53.22265625,6.8359375
1508291751.864458,-3.90625,20.01953125,90.8203125,44.921875,-44.921875
1508291751.8683643,-3.90625,14.16015625,93.26171875,52.734375,-48.828125
1508291751.8722706,14.6484375,15.625,105.95703125,77.1484375,-5.37109375
1508291751.8761768,25.390625,21.97265625,93.75,80.56640625,-17.08984375
1508291751.8782215,10.25390625,21.97265625,79.58984375,73.73046875,-13.18359375
1508291751.8821278,10.25390625,25.87890625,77.63671875,75.68359375,5.37109375
1508291751.886034,20.99609375,32.2265625,81.0546875,87.890625,-12.20703125
1508291751.8899403,12.20703125,30.76171875,73.73046875,86.42578125,-25.87890625
1508291751.8938465,1.953125,24.90234375,71.2890625,68.84765625,-2.44140625
1508291751.8977528,-6.8359375,18.06640625,75.68359375,57.6171875,15.625
1508291751.901659,10.7421875,16.6015625,83.984375,76.171875,29.78515625
1508291751.9055653,21.484375,23.4375,83.0078125,96.19140625,21.484375
1508291751.9094715,12.6953125,28.80859375,72.75390625,82.03125,-31.25
1508291751.9133778,3.41796875,32.2265625,89.84375,80.56640625,-8.7890625
1508291751.917284,14.6484375,34.1796875,103.515625,111.81640625,27.83203125
1508291751.9211903,32.71484375,34.1796875,103.02734375,109.86328125,18.06640625
1508291751.9232538,26.3671875,31.25,100.09765625,93.26171875,4.39453125
1508291751.92716,12.6953125,29.296875,90.33203125,92.28515625,-6.34765625
1508291751.9310663,20.5078125,29.78515625,89.35546875,97.16796875,20.01953125
1508291751.9349725,37.109375,27.83203125,93.75,112.79296875,-13.18359375
1508291751.9388788,41.015625,24.90234375,95.703125,131.34765625,-15.13671875
1508291751.942785,22.94921875,32.71484375,94.7265625,131.34765625,22.94921875
1508291751.9466913,15.13671875,36.62109375,97.16796875,125.48828125,32.71484375
1508291751.9505975,26.85546875,35.15625,91.30859375,129.8828125,14.6484375
1508291751.9545038,20.99609375,34.66796875,94.7265625,139.16015625,12.20703125
1508291751.95841,12.6953125,27.83203125,101.5625,134.27734375,40.52734375
1508291751.9623163,2.9296875,23.4375,89.84375,123.53515625,28.80859375
1508291751.9662225,21.97265625,27.83203125,87.890625,155.2734375,22.94921875
1508291751.9682837,34.1796875,28.3203125,82.03125,182.6171875,27.83203125
1508291751.97219,20.99609375,23.92578125,79.1015625,175.29296875,14.6484375
1508291751.9760962,25.390625,28.80859375,75.68359375,173.33984375,-27.83203125
1508291751.9800024,31.25,41.50390625,78.125,176.7578125,-12.20703125
1508291751.9839087,21.484375,48.33984375,85.44921875,152.83203125,25.87890625
1508291751.987815,8.30078125,47.36328125,82.03125,143.5546875,17.08984375
1508291751.9917212,-10.7421875,43.9453125,73.2421875,145.01953125,21.97265625
1508291751.9956274,-11.23046875,45.41015625,66.89453125,120.60546875,-5.859375
1508291751.9995337,15.625,49.31640625,81.54296875,126.46484375,6.8359375
1508291752.00344,19.04296875,56.15234375,70.80078125,133.7890625,-2.9296875
1508291752.0073462,-2.9296875,63.4765625,41.015625,100.09765625,-20.99609375
1508291752.0112524,-1.46484375,63.96484375,43.9453125,92.7734375,19.04296875
1508291752.0133185,12.6953125,58.10546875,57.12890625,119.140625,54.19921875
1508291752.0172248,7.32421875,51.26953125,59.5703125,113.76953125,4.8828125
1508291752.021131,-2.9296875,44.921875,60.05859375,104.98046875,7.32421875
1508291752.0250373,-13.18359375,38.57421875,66.89453125,111.81640625,20.5078125
1508291752.0289435,2.44140625,35.64453125,79.58984375,128.90625,-23.4375
1508291752.0328498,21.97265625,38.0859375,82.51953125,146.97265625,-15.13671875
1508291752.036756,20.99609375,43.9453125,77.1484375,147.4609375,1.953125
1508291752.0406623,11.23046875,48.33984375,76.66015625,130.859375,4.8828125
1508291752.0445685,19.53125,43.45703125,83.984375,140.625,20.01953125
1508291752.0484748,27.83203125,39.55078125,75.68359375,157.2265625,27.34375
1508291752.052381,22.94921875,44.921875,68.84765625,149.4140625,34.66796875
1508291752.0562873,0.48828125,43.45703125,75.1953125,137.6953125,20.01953125
1508291752.0583494,-0.9765625,40.0390625,82.03125,157.2265625,13.18359375
1508291752.0622556,25.390625,43.9453125,80.078125,165.0390625,41.9921875
1508291752.0661619,34.66796875,45.8984375,73.73046875,123.046875,35.64453125
1508291752.0700681,26.85546875,46.38671875,67.3828125,81.54296875,40.0390625
1508291752.0739744,16.6015625,52.734375,65.4296875,68.359375,48.33984375
1508291752.0778806,21.97265625,51.26953125,62.98828125,76.171875,26.3671875
1508291752.0817869,23.4375,42.48046875,56.640625,55.17578125,-4.8828125
1508291752.0856931,9.27734375,41.9921875,61.03515625,34.1796875,-5.859375
1508291752.0895994,-4.8828125,40.52734375,64.94140625,50.29296875,6.8359375
1508291752.0935056,7.8125,36.1328125,65.4296875,52.24609375,-16.6015625
1508291752.0974119,20.99609375,35.15625,67.87109375,46.875,9.765625
1508291752.1013181,16.6015625,37.59765625,68.359375,52.734375,21.484375
1508291752.1183903,6.34765625,41.9921875,61.5234375,49.8046875,-17.578125
1508291752.1222966,6.8359375,41.015625,56.15234375,47.8515625,-11.23046875
1508291752.1262028,16.6015625,41.015625,64.453125,84.47265625,41.50390625
1508291752.130109,13.671875,33.203125,62.01171875,122.0703125,10.25390625
1508291752.1340153,0.48828125,27.34375,59.5703125,143.5546875,-20.99609375
1508291752.1379216,5.37109375,31.73828125,54.6875,150.87890625,-42.96875
1508291752.1418278,21.484375,32.71484375,60.05859375,152.83203125,-58.10546875
1508291752.145734,20.01953125,31.25,81.54296875,173.828125,-17.08984375
1508291752.1496403,10.7421875,33.69140625,80.078125,185.05859375,41.50390625
1508291752.1535466,4.8828125,36.1328125,64.94140625,173.828125,85.44921875
1508291752.1574528,13.18359375,34.1796875,67.87109375,174.31640625,44.921875
1508291752.161359,26.3671875,32.71484375,77.63671875,189.453125,41.015625
1508291752.1629424,16.6015625,32.71484375,67.3828125,194.82421875,33.203125
1508291752.1668487,-6.34765625,30.76171875,55.6640625,180.6640625,-6.8359375
1508291752.170755,2.9296875,23.4375,57.12890625,186.03515625,24.90234375
1508291752.1746612,20.5078125,23.92578125,58.59375,214.35546875,26.3671875
1508291752.1785674,18.06640625,29.78515625,57.12890625,216.796875,-20.99609375
1508291752.1824737,-1.46484375,29.296875,47.8515625,189.94140625,-5.37109375
1508291752.18638,-2.9296875,28.80859375,50.78125,188.96484375,-13.18359375
1508291752.1902862,8.7890625,30.76171875,62.98828125,216.30859375,11.23046875
1508291752.1941924,5.859375,30.2734375,53.7109375,207.03125,26.85546875
1508291752.1980987,-12.6953125,30.2734375,46.875,169.43359375,14.6484375
1508291752.202005,-15.13671875,31.25,65.4296875,173.828125,29.296875
1508291752.2059112,7.8125,31.73828125,74.21875,207.03125,1.46484375
1508291752.2079544,13.671875,31.25,72.265625,207.51953125,-19.53125
1508291752.2118607,0.9765625,31.73828125,73.2421875,184.5703125,-8.30078125
1508291752.215767,-7.8125,32.71484375,68.359375,166.015625,-28.80859375
1508291752.2196732,6.8359375,30.2734375,61.5234375,187.98828125,-50.29296875
1508291752.2235794,10.25390625,27.83203125,55.17578125,194.3359375,-34.66796875
1508291752.2274857,5.859375,24.4140625,49.8046875,175.29296875,-15.13671875
1508291752.231392,-7.32421875,24.4140625,56.15234375,154.78515625,54.19921875
1508291752.2352982,-21.97265625,28.3203125,66.40625,153.80859375,38.57421875
1508291752.2392044,-14.16015625,27.34375,58.59375,150.87890625,0.0
1508291752.2431107,-9.27734375,26.3671875,57.6171875,61.03515625,27.34375
1508291752.247017,-17.578125,27.83203125,65.91796875,-25.87890625,20.01953125
1508291752.2509232,-14.16015625,23.4375,56.15234375,-52.24609375,-15.625
1508291752.2529883,4.39453125,18.5546875,58.10546875,-49.31640625,4.39453125
1508291752.2568946,5.859375,19.53125,63.4765625,-67.87109375,11.23046875
1508291752.2608008,-7.8125,21.97265625,59.5703125,-96.6796875,12.6953125
1508291752.264707,-4.8828125,20.99609375,54.19921875,-97.16796875,56.15234375
1508291752.2686133,16.11328125,20.01953125,54.19921875,-78.125,46.38671875
1508291752.2725196,11.71875,16.6015625,48.33984375,-76.171875,-1.953125
1508291752.2764258,-2.9296875,19.04296875,39.55078125,-92.7734375,0.48828125
1508291752.280332,-10.7421875,27.34375,36.1328125,-82.51953125,41.50390625
1508291752.2842383,0.48828125,31.73828125,37.59765625,-58.10546875,15.625
1508291752.2881446,8.30078125,29.296875,49.31640625,-50.78125,6.34765625
1508291752.2920508,8.30078125,23.4375,50.29296875,-56.640625,32.71484375
1508291752.295957,-4.8828125,21.484375,37.109375,-60.546875,-0.48828125
1508291752.2980182,-2.9296875,23.4375,33.203125,-45.8984375,-8.30078125
1508291752.3019245,23.92578125,27.34375,36.1328125,-36.62109375,25.87890625
1508291752.3058307,24.4140625,27.83203125,31.25,-36.1328125,13.18359375
1508291752.309737,0.9765625,24.90234375,36.62109375,-36.62109375,8.30078125
1508291752.3136432,-6.8359375,25.390625,51.7578125,-34.1796875,21.97265625
1508291752.3175495,6.8359375,23.92578125,57.6171875,-30.76171875,11.23046875
1508291752.3214557,10.25390625,18.5546875,66.40625,-32.2265625,13.671875
1508291752.325362,-11.71875,17.08984375,61.5234375,-33.203125,13.671875
1508291752.3292682,-20.01953125,16.6015625,64.94140625,-31.73828125,-1.46484375
1508291752.3331745,-0.48828125,15.625,86.42578125,-18.06640625,9.765625
1508291752.3370807,5.859375,18.06640625,84.9609375,-23.92578125,42.48046875
1508291752.340987,-9.27734375,19.53125,70.3125,-41.9921875,45.41015625
1508291752.34305,-18.06640625,20.01953125,63.4765625,-36.1328125,12.20703125
1508291752.3469563,-4.8828125,21.484375,72.265625,-8.30078125,20.99609375
1508291752.3508625,1.46484375,21.97265625,76.171875,0.48828125,2.9296875
1508291752.3547688,-7.8125,18.06640625,72.265625,-15.625,-31.25
1508291752.358675,-21.97265625,19.04296875,79.1015625,-24.4140625,8.7890625
1508291752.3625813,-19.04296875,22.94921875,78.61328125,-14.16015625,-10.25390625
1508291752.3664875,-2.9296875,22.4609375,76.66015625,9.765625,-24.4140625
1508291752.3703938,-5.859375,22.4609375,74.21875,2.9296875,-12.20703125
1508291752.3743,-14.16015625,21.97265625,78.125,-5.37109375,38.0859375
1508291752.3782063,-12.20703125,22.4609375,77.1484375,5.859375,61.03515625
1508291752.3821125,-0.48828125,21.97265625,64.94140625,0.48828125,26.3671875
1508291752.3860188,11.71875,24.90234375,65.91796875,7.8125,31.73828125
1508291752.3880818,2.9296875,23.92578125,71.2890625,17.578125,15.625
1508291752.391988,-6.34765625,19.53125,71.2890625,2.9296875,-6.8359375
1508291752.3958943,9.765625,23.4375,69.82421875,-5.859375,7.32421875
1508291752.3998005,15.625,25.87890625,73.2421875,6.34765625,28.3203125
1508291752.4037068,10.25390625,24.90234375,73.73046875,21.97265625,26.85546875
1508291752.407613,0.9765625,28.3203125,68.84765625,19.53125,40.0390625
1508291752.4115193,0.9765625,33.203125,61.5234375,14.16015625,31.25
1508291752.4154255,10.25390625,35.15625,64.94140625,5.37109375,-0.48828125
1508291752.4193318,12.20703125,32.71484375,76.171875,18.5546875,32.2265625
1508291752.423238,-0.9765625,31.73828125,66.89453125,18.5546875,39.55078125
1508291752.4271443,-4.39453125,30.2734375,63.96484375,1.953125,17.08984375
1508291752.4310505,14.6484375,28.80859375,72.75390625,-1.46484375,28.80859375
1508291752.4331362,22.4609375,26.3671875,76.171875,-11.23046875,19.53125
1508291752.4370425,-2.44140625,21.484375,70.80078125,-24.90234375,-32.2265625
1508291752.4409487,-18.06640625,20.5078125,70.3125,-18.06640625,-11.71875
1508291752.444855,-12.6953125,15.13671875,78.61328125,-6.34765625,25.390625
1508291752.4487612,-8.7890625,8.7890625,76.171875,-13.18359375,26.85546875
1508291752.4526675,-15.625,12.20703125,60.546875,-23.4375,55.6640625
1508291752.4565737,-22.4609375,17.08984375,56.15234375,-32.2265625,12.20703125
1508291752.46048,-6.34765625,18.5546875,68.84765625,-10.25390625,-4.8828125
1508291752.4643862,13.671875,19.04296875,69.3359375,5.37109375,31.73828125
1508291752.4682925,5.37109375,17.578125,62.98828125,-11.23046875,21.97265625
1508291752.4721987,-18.06640625,14.16015625,64.453125,-17.08984375,16.6015625
1508291752.476105,-9.765625,9.27734375,66.40625,9.27734375,22.4609375
1508291752.4931977,2.9296875,11.23046875,70.3125,26.3671875,11.71875
1508291752.497104,-3.41796875,13.671875,75.68359375,7.32421875,-27.83203125
1508291752.5010102,-13.671875,14.16015625,83.0078125,-10.7421875,17.578125
1508291752.5049164,-11.23046875,18.5546875,82.03125,3.41796875,39.55078125
1508291752.5088227,5.37109375,21.484375,77.1484375,36.62109375,24.90234375
1508291752.512729,12.6953125,20.01953125,70.80078125,36.1328125,41.50390625
1508291752.5166352,5.37109375,19.04296875,65.91796875,10.25390625,10.7421875
1508291752.5205414,-2.44140625,20.01953125,72.265625,6.8359375,27.83203125
1508291752.5244477,16.11328125,20.99609375,74.21875,25.87890625,41.50390625
1508291752.528354,26.3671875,19.53125,70.80078125,34.66796875,-1.46484375
1508291752.5322602,14.16015625,17.578125,73.2421875,34.66796875,16.11328125
1508291752.5361664,6.34765625,12.20703125,76.171875,24.90234375,12.6953125
1508291752.53821,23.4375,19.04296875,78.61328125,26.85546875,-6.34765625
1508291752.5421162,34.1796875,20.99609375,72.265625,46.38671875,-4.8828125
1508291752.5460224,20.5078125,10.25390625,69.82421875,48.828125,15.625
1508291752.5499287,5.37109375,13.18359375,74.21875,28.3203125,48.828125
1508291752.553835,9.765625,19.53125,67.87109375,27.34375,8.7890625
1508291752.5577412,17.578125,22.4609375,64.94140625,31.25,-2.44140625
1508291752.5616474,21.484375,17.578125,67.87109375,36.1328125,23.92578125
1508291752.5655537,18.06640625,13.671875,68.359375,47.8515625,6.34765625
1508291752.56946,12.20703125,18.5546875,63.4765625,54.6875,2.9296875
1508291752.5733662,26.3671875,20.5078125,64.453125,49.31640625,-50.29296875
1508291752.5772724,32.2265625,20.01953125,80.078125,59.08203125,-41.9921875
1508291752.5811787,18.06640625,18.5546875,74.70703125,78.125,3.41796875
1508291752.5833192,9.27734375,16.6015625,60.546875,64.94140625,-7.8125
1508291752.5872254,24.90234375,18.5546875,69.3359375,94.23828125,-20.99609375
1508291752.5911317,30.2734375,21.97265625,85.44921875,147.94921875,-23.92578125
1508291752.595038,20.99609375,26.85546875,83.984375,173.33984375,8.30078125
1508291752.5989442,14.16015625,25.87890625,72.75390625,177.734375,2.44140625
1508291752.6028504,19.53125,21.97265625,71.2890625,171.875,12.6953125
1508291752.6067567,23.92578125,24.90234375,76.66015625,176.26953125,11.23046875
1508291752.610663,23.92578125,28.80859375,83.0078125,189.94140625,1.46484375
1508291752.6145692,-3.41796875,28.3203125,70.3125,186.5234375,6.8359375
1508291752.6184754,-1.46484375,25.390625,64.453125,187.01171875,-58.10546875
1508291752.6223817,24.90234375,25.390625,84.9609375,201.66015625,-49.8046875
1508291752.626288,24.90234375,24.90234375,89.35546875,204.58984375,-6.8359375
1508291752.628347,19.04296875,20.99609375,81.0546875,203.125,-11.71875
1508291752.6322532,8.30078125,19.04296875,83.49609375,210.9375,-12.6953125
1508291752.6361594,20.99609375,17.08984375,101.5625,224.12109375,-5.37109375
1508291752.6400657,36.1328125,17.578125,101.07421875,221.19140625,44.43359375
1508291752.643972,23.4375,20.5078125,85.9375,205.078125,40.52734375
1508291752.6478782,-1.953125,29.296875,82.51953125,190.91796875,2.9296875
1508291752.6517844,2.9296875,35.15625,92.28515625,191.40625,40.52734375
1508291752.6556907,13.671875,31.25,96.6796875,183.10546875,57.6171875
1508291752.659597,2.9296875,38.57421875,84.47265625,161.62109375,29.78515625
1508291752.6635032,-9.765625,41.50390625,77.1484375,161.62109375,42.96875
1508291752.6674094,-2.44140625,32.2265625,69.82421875,180.6640625,47.36328125
1508291752.6713157,12.20703125,37.59765625,66.89453125,174.8046875,30.76171875
1508291752.6734035,1.953125,42.96875,66.89453125,166.015625,50.29296875
1508291752.6773098,-16.11328125,35.15625,63.96484375,172.8515625,73.73046875
1508291752.681216,-3.90625,33.203125,62.5,168.9453125,72.265625
1508291752.6851223,14.6484375,41.015625,62.98828125,161.1328125,48.33984375
1508291752.6890285,12.6953125,31.25,59.08203125,159.66796875,23.92578125
1508291752.6929348,-6.8359375,27.34375,54.6875,157.71484375,10.25390625
1508291752.696841,0.9765625,33.69140625,60.546875,152.83203125,12.20703125
1508291752.7007473,23.4375,38.0859375,62.98828125,140.625,-14.16015625
1508291752.7046535,17.08984375,37.59765625,70.3125,141.11328125,34.1796875
1508291752.7085598,11.23046875,24.4140625,88.37890625,154.78515625,87.890625
1508291752.712466,1.953125,34.1796875,86.42578125,144.53125,8.7890625
1508291752.7163723,7.32421875,40.52734375,87.890625,135.7421875,2.9296875
1508291752.7184114,13.18359375,35.64453125,93.26171875,125.0,44.43359375
1508291752.7223177,11.23046875,41.50390625,93.75,112.3046875,36.1328125
1508291752.726224,-3.90625,43.9453125,87.40234375,106.93359375,24.4140625
1508291752.7301302,-1.46484375,40.0390625,85.44921875,126.953125,22.94921875
1508291752.7340364,12.6953125,41.9921875,100.09765625,127.9296875,5.37109375
1508291752.7379427,11.23046875,47.36328125,110.83984375,89.35546875,24.4140625
1508291752.741849,-4.8828125,48.828125,101.5625,87.890625,26.85546875
1508291752.7457552,-9.765625,44.43359375,90.33203125,101.5625,-10.7421875
1508291752.7496614,11.23046875,45.41015625,104.00390625,114.74609375,-17.578125
1508291752.7535677,11.23046875,48.33984375,110.83984375,118.1640625,-11.23046875
1508291752.757474,0.48828125,53.22265625,98.6328125,90.8203125,-20.99609375
1508291752.7613802,-4.8828125,54.6875,88.8671875,79.1015625,-29.78515625
1508291752.7629628,5.37109375,53.22265625,93.26171875,100.09765625,6.34765625
1508291752.766869,10.25390625,57.6171875,90.33203125,98.14453125,3.41796875
1508291752.7707753,-0.48828125,58.10546875,78.61328125,21.484375,-22.4609375
1508291752.7746816,-12.6953125,53.7109375,75.1953125,-74.70703125,12.6953125
1508291752.7785878,-10.7421875,52.734375,79.58984375,-96.6796875,43.9453125
1508291752.782494,-0.9765625,54.6875,71.2890625,-88.37890625,42.96875
1508291752.7864003,-2.44140625,59.08203125,54.6875,-101.5625,-3.90625
1508291752.7903066,-22.4609375,51.26953125,55.6640625,-117.67578125,-45.41015625
1508291752.7942128,-18.5546875,46.38671875,79.1015625,-100.09765625,-13.671875
1508291752.798119,-8.7890625,48.828125,75.68359375,-94.7265625,20.5078125
1508291752.8020253,-16.6015625,48.828125,64.94140625,-94.7265625,68.359375
1508291752.8059316,-18.5546875,53.22265625,61.03515625,-93.75,53.22265625
1508291752.8079746,-14.16015625,52.734375,50.29296875,-92.28515625,34.66796875
1508291752.8118808,-3.90625,49.31640625,49.31640625,-79.58984375,29.296875
1508291752.815787,-1.46484375,50.29296875,60.546875,-79.58984375,19.04296875
1508291752.8196933,-14.6484375,46.875,62.98828125,-99.609375,26.3671875
1508291752.8235996,-16.11328125,43.9453125,57.6171875,-109.375,29.296875
1508291752.8275058,-4.8828125,45.8984375,64.453125,-90.8203125,27.34375
1508291752.831412,-5.859375,44.43359375,64.94140625,-76.66015625,4.8828125
1508291752.8353183,-15.625,43.9453125,73.73046875,-79.1015625,16.6015625
1508291752.8392246,-28.80859375,47.8515625,72.265625,-90.33203125,-0.9765625
1508291752.8431308,-21.97265625,45.41015625,64.453125,-87.40234375,-29.78515625
1508291752.847037,-7.32421875,42.96875,71.77734375,-62.98828125,9.27734375
1508291752.8509433,-6.34765625,43.9453125,70.3125,-61.03515625,49.8046875
1508291752.8680177,-19.04296875,46.875,61.5234375,-78.125,65.4296875
1508291752.871924,-10.7421875,52.734375,54.19921875,-68.84765625,44.43359375
1508291752.8758302,2.44140625,47.8515625,57.12890625,-36.1328125,31.25
1508291752.8797364,-5.37109375,42.48046875,63.4765625,-33.203125,33.69140625
1508291752.8836427,-13.671875,40.0390625,56.640625,-60.05859375,7.32421875
1508291752.887549,-20.5078125,37.59765625,41.015625,-67.3828125,15.625
1508291752.8914552,-4.39453125,39.0625,43.9453125,-43.45703125,34.1796875
1508291752.8953614,11.71875,41.015625,61.5234375,-8.7890625,50.78125
1508291752.8992677,-13.671875,41.9921875,55.6640625,-13.671875,44.921875
1508291752.903174,-31.73828125,41.015625,43.45703125,-42.96875,24.4140625
1508291752.9070802,-7.32421875,38.57421875,48.33984375,-45.8984375,-3.90625
1508291752.9109864,-3.41796875,39.55078125,58.10546875,-47.36328125,0.0
1508291752.9130511,-15.625,39.55078125,57.6171875,-47.8515625,32.71484375
1508291752.9169574,-24.90234375,39.55078125,55.6640625,-42.48046875,24.4140625
1508291752.9208636,-22.94921875,31.73828125,64.453125,-21.97265625,0.0
1508291752.9247699,-4.8828125,25.87890625,72.265625,-11.71875,6.34765625
1508291752.9286761,-10.7421875,29.296875,74.70703125,-41.50390625,13.671875
1508291752.9325824,-28.80859375,28.3203125,71.2890625,-55.17578125,31.25
1508291752.9364886,-23.92578125,32.71484375,66.40625,-35.15625,39.55078125
1508291752.9403949,-8.30078125,36.1328125,75.1953125,-20.01953125,0.0
1508291752.9443011,-6.34765625,31.73828125,79.1015625,-21.484375,-14.16015625
1508291752.9482074,-16.11328125,32.71484375,69.3359375,-45.8984375,-18.06640625
1508291752.9521136,-25.390625,32.71484375,76.66015625,-44.43359375,13.671875
1508291752.9560199,-15.13671875,29.296875,83.0078125,-4.8828125,28.80859375
1508291752.9580834,-7.32421875,30.2734375,81.0546875,3.41796875,37.59765625
1508291752.9619896,-18.06640625,28.3203125,76.171875,-26.3671875,23.92578125
1508291752.965896,-34.66796875,25.87890625,70.80078125,-28.3203125,-6.8359375
1508291752.9698021,-17.08984375,28.80859375,69.3359375,-5.859375,15.13671875
1508291752.9737084,5.37109375,26.3671875,66.89453125,-7.8125,23.4375
1508291752.9776146,-7.32421875,19.53125,63.96484375,-33.203125,8.30078125
1508291752.981521,-21.97265625,24.4140625,66.89453125,-56.640625,9.27734375
1508291752.9854271,-14.16015625,32.2265625,79.1015625,-29.78515625,-6.34765625
1508291752.9893334,-5.859375,31.25,79.58984375,-0.9765625,-4.8828125
1508291752.9932396,-3.90625,31.25,80.078125,-17.578125,1.46484375
1508291752.997146,-11.23046875,33.69140625,94.23828125,-29.296875,0.9765625
1508291753.0010521,-2.44140625,29.78515625,89.84375,-26.85546875,-13.18359375
1508291753.0031128,12.20703125,29.296875,89.84375,-22.4609375,1.953125
1508291753.007019,9.27734375,29.296875,91.796875,-15.625,13.18359375
1508291753.0109253,-0.9765625,29.78515625,80.56640625,-17.578125,-21.484375
1508291753.0148315,-0.9765625,31.73828125,76.66015625,-27.34375,-21.484375
1508291753.0187378,20.01953125,27.83203125,76.171875,-20.99609375,-5.859375
1508291753.022644,23.4375,27.34375,75.68359375,-23.4375,6.34765625
1508291753.0265503,12.20703125,32.71484375,72.75390625,-36.1328125,8.7890625
1508291753.0304565,4.39453125,35.15625,63.96484375,-47.36328125,-13.18359375
1508291753.0343628,20.5078125,34.66796875,55.6640625,-36.62109375,-41.9921875
1508291753.038269,33.69140625,34.66796875,66.89453125,-22.4609375,-11.23046875
1508291753.0421753,27.83203125,33.203125,70.3125,-17.578125,42.48046875
1508291753.0460815,19.04296875,29.78515625,54.19921875,-41.015625,41.015625
1508291753.0481455,19.04296875,29.78515625,54.6875,-41.9921875,34.1796875
1508291753.0520518,30.2734375,34.66796875,66.40625,-0.9765625,46.875
1508291753.055958,32.2265625,34.1796875,57.12890625,-8.7890625,30.76171875
1508291753.0598643,21.484375,33.69140625,47.8515625,-38.57421875,15.13671875
1508291753.0637705,16.11328125,31.73828125,55.6640625,-41.50390625,-20.01953125
1508291753.0676768,21.484375,27.34375,58.59375,-47.8515625,-34.66796875
1508291753.071583,25.87890625,32.2265625,63.96484375,-49.31640625,-5.859375
1508291753.0754893,12.6953125,32.71484375,55.6640625,-42.48046875,-13.671875
1508291753.0793955,6.34765625,29.296875,46.38671875,-33.69140625,-39.0625
1508291753.0833018,30.2734375,29.78515625,58.10546875,-3.90625,-25.87890625
1508291753.087208,40.52734375,30.76171875,53.22265625,-7.8125,-32.71484375
1508291753.0911143,23.4375,33.203125,48.33984375,-32.71484375,-20.99609375
1508291753.0931976,14.16015625,37.109375,48.33984375,-29.78515625,-9.27734375
1508291753.0971038,30.2734375,38.57421875,55.6640625,-3.41796875,-27.83203125
1508291753.10101,40.0390625,42.48046875,62.5,2.9296875,-27.34375
1508291753.1049163,32.71484375,41.50390625,58.10546875,-21.484375,-58.10546875
1508291753.1088226,17.578125,36.1328125,56.640625,-30.2734375,-67.87109375
1508291753.1127288,16.6015625,38.57421875,58.59375,0.9765625,-23.4375
1508291753.116635,32.2265625,41.50390625,57.6171875,14.16015625,20.99609375
1508291753.1205413,28.3203125,39.55078125,51.7578125,-6.34765625,-15.13671875
1508291753.1244476,22.4609375,38.57421875,57.12890625,-4.39453125,-41.015625
1508291753.1283538,25.87890625,38.57421875,60.546875,19.53125,8.7890625
1508291753.13226,37.59765625,33.203125,57.6171875,15.625,0.0
1508291753.1361663,28.80859375,32.71484375,62.01171875,10.25390625,8.30078125
1508291753.1382108,11.71875,31.25,60.05859375,15.13671875,31.25
1508291753.142117,22.4609375,30.76171875,56.640625,9.27734375,28.3203125
1508291753.1460233,43.45703125,34.1796875,56.15234375,11.71875,20.99609375
1508291753.1499295,45.41015625,33.69140625,58.10546875,26.3671875,45.41015625
1508291753.1538358,35.64453125,32.71484375,58.59375,25.87890625,44.43359375
1508291753.157742,25.390625,32.2265625,57.12890625,3.41796875,41.015625
1508291753.1616483,27.34375,32.2265625,62.98828125,4.39453125,31.25
1508291753.1655545,34.66796875,33.69140625,82.51953125,2.44140625,20.99609375
1508291753.1694608,24.4140625,33.203125,95.21484375,9.765625,26.85546875
1508291753.173367,16.11328125,34.66796875,85.44921875,15.13671875,39.0625
1508291753.1772733,25.390625,30.2734375,82.51953125,16.6015625,78.61328125
1508291753.1811795,38.0859375,26.3671875,78.125,18.5546875,41.9921875
1508291753.1833227,28.3203125,31.25,77.1484375,9.765625,48.828125
1508291753.187229,8.30078125,32.71484375,74.70703125,-12.6953125,51.26953125
1508291753.1911352,0.9765625,31.25,74.21875,-32.2265625,-0.48828125
1508291753.1950414,15.625,31.73828125,80.078125,-17.08984375,19.04296875
1508291753.1989477,23.4375,31.25,73.2421875,3.90625,41.50390625
1508291753.202854,12.20703125,28.80859375,60.05859375,8.7890625,41.9921875
1508291753.2067602,-1.46484375,30.2734375,54.19921875,-8.30078125,13.671875
1508291753.2106664,21.484375,34.66796875,73.2421875,-0.9765625,20.99609375
1508291753.2145727,28.80859375,33.203125,82.03125,27.83203125,34.1796875
1508291753.218479,8.7890625,30.76171875,67.87109375,28.3203125,20.01953125
1508291753.2223852,-7.8125,30.2734375,71.2890625,12.20703125,21.97265625
1508291753.2262914,3.41796875,30.2734375,76.171875,12.6953125,28.80859375
1508291753.2433677,26.85546875,31.73828125,77.63671875,33.69140625,61.03515625
1508291753.247274,16.11328125,30.2734375,76.66015625,30.2734375,45.41015625
1508291753.2511802,0.0,31.73828125,74.21875,7.32421875,2.44140625
1508291753.2550864,-0.48828125,34.1796875,78.61328125,10.25390625,-4.8828125
1508291753.2589927,15.13671875,32.71484375,78.125,35.15625,17.08984375
1508291753.262899,20.5078125,29.78515625,64.94140625,28.3203125,20.99609375
1508291753.2668052,10.25390625,23.4375,65.91796875,-1.46484375,-27.34375
1508291753.2707114,-0.48828125,27.83203125,78.125,-5.37109375,-26.85546875
1508291753.2746177,11.23046875,33.203125,75.1953125,13.18359375,21.484375
1508291753.278524,14.16015625,33.203125,67.87109375,30.2734375,5.859375
1508291753.2824302,-0.9765625,32.71484375,63.96484375,26.3671875,7.32421875
1508291753.2863364,-20.01953125,33.203125,52.734375,0.48828125,14.6484375
1508291753.2883978,-13.671875,36.1328125,45.41015625,4.39453125,22.4609375
1508291753.292304,-1.953125,38.0859375,47.8515625,21.97265625,69.3359375
1508291753.2962103,-8.7890625,36.62109375,41.9921875,8.30078125,60.546875
1508291753.3001165,-14.16015625,34.1796875,42.48046875,1.953125,23.92578125
1508291753.3040228,-4.39453125,34.1796875,44.921875,16.6015625,16.6015625
1508291753.307929,10.7421875,35.15625,34.1796875,23.4375,22.94921875
1508291753.3118353,11.23046875,38.57421875,28.80859375,14.16015625,28.3203125
1508291753.3157415,-5.859375,39.0625,31.25,-2.44140625,22.4609375
1508291753.3196478,-10.25390625,38.57421875,32.71484375,10.25390625,20.5078125
1508291753.323554,-1.46484375,39.55078125,33.69140625,17.08984375,17.578125
1508291753.3274603,6.8359375,41.50390625,48.33984375,11.71875,-12.6953125
1508291753.3313665,3.41796875,42.48046875,48.33984375,-0.9765625,-26.85546875
1508291753.3334289,-7.32421875,38.57421875,43.45703125,-18.5546875,-30.2734375
1508291753.337335,10.7421875,35.64453125,48.828125,1.46484375,-23.4375
1508291753.3412414,17.578125,39.55078125,49.31640625,2.44140625,-15.13671875
1508291753.3451476,5.37109375,41.9921875,47.36328125,-9.27734375,-8.30078125
1508291753.3490539,-12.6953125,39.0625,36.62109375,-14.6484375,-12.20703125
1508291753.35296,-12.6953125,33.69140625,26.3671875,-11.23046875,-12.6953125
1508291753.3568664,-0.48828125,34.1796875,24.90234375,-3.41796875,28.3203125
1508291753.3607726,0.9765625,36.62109375,25.87890625,-10.25390625,40.52734375
1508291753.3646789,-5.859375,37.59765625,7.32421875,-25.390625,-38.57421875
1508291753.368585,-2.9296875,38.0859375,-0.9765625,-18.5546875,-42.96875
1508291753.3724914,2.9296875,36.1328125,11.71875,14.16015625,22.4609375
1508291753.3763976,3.41796875,33.203125,4.8828125,26.85546875,33.203125
1508291753.3783324,1.46484375,34.1796875,-3.41796875,3.90625,19.04296875
1508291753.3822386,-5.37109375,32.71484375,0.48828125,-11.23046875,2.9296875
1508291753.3861449,1.953125,23.92578125,3.90625,-3.90625,13.18359375
1508291753.3900511,8.7890625,24.4140625,2.44140625,0.9765625,-4.8828125
1508291753.3939574,-1.46484375,26.3671875,3.41796875,-16.11328125,-14.6484375
1508291753.3978636,-8.30078125,22.94921875,9.765625,-15.625,9.27734375
1508291753.4017699,0.0,22.4609375,18.06640625,8.30078125,36.62109375
1508291753.4056761,4.39453125,22.4609375,15.13671875,6.8359375,7.32421875
1508291753.4095824,-10.7421875,23.4375,5.859375,-5.859375,-25.390625
1508291753.4134886,-18.5546875,27.83203125,11.71875,-5.859375,12.20703125
1508291753.4173949,-1.953125,29.296875,19.04296875,15.13671875,20.99609375
1508291753.4213011,-1.953125,26.85546875,17.08984375,16.11328125,1.46484375
1508291753.4233668,3.41796875,29.296875,26.85546875,7.32421875,0.48828125
1508291753.427273,-15.625,31.25,41.015625,-8.30078125,-9.765625
1508291753.4311793,-11.71875,30.76171875,43.9453125,-8.7890625,-5.37109375
1508291753.4350855,15.625,30.76171875,41.9921875,2.44140625,0.0
1508291753.4389918,9.765625,34.1796875,44.921875,-1.46484375,-24.90234375
1508291753.442898,-4.8828125,33.203125,40.0390625,-17.578125,-10.7421875
1508291753.4468043,-5.37109375,31.25,40.0390625,-21.97265625,14.6484375
1508291753.4507105,0.48828125,30.2734375,34.1796875,-5.859375,-22.4609375
1508291753.4546168,1.46484375,27.83203125,31.73828125,-2.44140625,-26.3671875
1508291753.458523,-3.90625,32.71484375,41.9921875,-10.25390625,13.18359375
1508291753.4624293,-12.6953125,35.15625,32.2265625,-22.94921875,-52.734375
1508291753.4663355,-5.37109375,34.1796875,39.0625,-1.46484375,-39.0625
1508291753.468412,3.41796875,39.55078125,51.26953125,2.9296875,25.390625
1508291753.4723182,-1.46484375,34.1796875,46.875,-15.625,7.8125
1508291753.4762244,-19.53125,30.2734375,42.96875,-21.484375,24.4140625
1508291753.4801307,-11.71875,35.15625,49.8046875,-21.97265625,51.26953125
1508291753.484037,9.27734375,34.66796875,54.6875,-11.23046875,30.2734375
1508291753.4879432,7.8125,35.15625,48.828125,-8.30078125,6.8359375
1508291753.4918494,-10.25390625,37.59765625,46.38671875,-14.6484375,23.92578125
1508291753.4957557,-6.8359375,37.109375,35.64453125,-11.71875,-40.0390625
1508291753.499662,9.765625,32.71484375,47.36328125,11.23046875,-68.84765625
1508291753.5035682,2.44140625,29.296875,56.15234375,13.671875,11.71875
1508291753.5074744,-15.625,27.83203125,46.38671875,1.46484375,29.296875
1508291753.5113807,-16.11328125,26.85546875,47.36328125,0.0,19.04296875
1508291753.5129287,11.23046875,30.76171875,54.19921875,2.44140625,17.578125
1508291753.516835,10.7421875,33.203125,49.8046875,13.18359375,13.18359375
1508291753.5207412,-8.30078125,30.2734375,40.52734375,-14.6484375,25.87890625
1508291753.5246475,-10.25390625,28.80859375,49.8046875,-40.52734375,15.625
1508291753.5285537,-6.8359375,28.80859375,53.7109375,-22.94921875,-4.39453125
1508291753.53246,-0.48828125,28.3203125,48.828125,-17.08984375,11.71875
1508291753.5363662,-0.48828125,25.87890625,46.38671875,-29.296875,-10.25390625
1508291753.5402725,-9.27734375,23.4375,49.8046875,-35.15625,-15.625
1508291753.5441787,7.8125,29.296875,61.5234375,-11.71875,6.8359375
1508291753.548085,19.53125,32.2265625,62.98828125,6.8359375,-23.4375
1508291753.5519912,12.20703125,31.73828125,52.734375,-5.859375,-42.48046875
1508291753.5558975,0.48828125,32.71484375,43.9453125,-17.578125,-26.85546875
1508291753.5579603,-4.39453125,31.73828125,46.38671875,-13.671875,11.23046875
1508291753.5618665,3.41796875,28.80859375,43.9453125,-2.9296875,-2.9296875
1508291753.5657728,-2.44140625,26.85546875,44.43359375,-1.46484375,-26.3671875
1508291753.569679,-10.7421875,24.4140625,54.19921875,-12.6953125,-1.46484375
1508291753.5735853,-13.18359375,25.87890625,55.17578125,-21.484375,1.46484375
1508291753.5774915,-3.90625,28.80859375,55.17578125,-14.6484375,-30.2734375
1508291753.5813978,-2.9296875,28.80859375,45.41015625,-17.578125,-6.34765625
1508291753.585304,-14.16015625,27.83203125,46.875,-32.2265625,41.9921875
1508291753.5892103,-26.3671875,26.3671875,52.734375,-33.203125,49.8046875
1508291753.5931165,-17.08984375,23.92578125,46.875,-22.94921875,40.0390625
1508291753.5970228,-5.859375,25.87890625,46.875,-17.08984375,16.6015625
1508291753.600929,-1.953125,30.2734375,46.875,-10.7421875,15.625
1508291753.6180034,-13.18359375,31.73828125,32.71484375,-30.2734375,20.01953125
1508291753.6219096,-9.27734375,32.2265625,23.4375,-36.62109375,-1.46484375
1508291753.6258159,12.20703125,34.1796875,34.66796875,-15.13671875,11.23046875
1508291753.629722,9.27734375,32.71484375,47.36328125,-18.5546875,11.71875
1508291753.6336284,-7.8125,27.34375,46.875,-37.109375,9.27734375
1508291753.6375346,-12.6953125,25.390625,37.109375,-51.7578125,-14.6484375
1508291753.6414409,-1.953125,25.87890625,47.36328125,-45.8984375,17.08984375
1508291753.645347,6.8359375,23.4375,57.12890625,-33.69140625,29.78515625
1508291753.6492534,2.44140625,26.85546875,54.19921875,-44.43359375,-8.7890625
1508291753.6531596,-4.8828125,33.203125,46.875,-46.875,18.06640625
1508291753.6570659,20.5078125,36.62109375,45.41015625,-27.34375,38.0859375
1508291753.660972,30.2734375,38.0859375,50.78125,-11.71875,33.69140625
1508291753.6630464,7.32421875,33.203125,50.29296875,-12.20703125,14.6484375
1508291753.6669526,-11.23046875,30.2734375,48.828125,-12.6953125,0.48828125
1508291753.6708589,-2.44140625,31.73828125,52.734375,7.8125,12.20703125
1508291753.674765,9.27734375,30.76171875,52.734375,11.23046875,-10.7421875
1508291753.6786714,-1.953125,29.296875,41.50390625,0.0,-14.16015625
1508291753.6825776,-8.7890625,27.34375,33.69140625,-4.8828125,1.953125
1508291753.6864839,0.0,32.2265625,36.62109375,-2.44140625,-7.8125
1508291753.69039,10.7421875,33.69140625,44.43359375,15.13671875,20.5078125
1508291753.6942964,6.8359375,28.80859375,44.921875,10.7421875,9.27734375
1508291753.6982026,-5.859375,29.296875,31.73828125,-17.578125,-36.62109375
1508291753.7021089,-1.953125,28.80859375,45.41015625,-5.859375,-3.41796875
1508291753.706015,11.23046875,29.296875,60.05859375,26.3671875,19.04296875
1508291753.7080655,17.578125,34.1796875,49.31640625,26.3671875,-4.8828125
1508291753.7119718,5.859375,36.62109375,44.921875,10.7421875,6.34765625
1508291753.715878,-4.8828125,33.203125,48.33984375,4.39453125,31.25
1508291753.7197843,8.30078125,34.1796875,51.7578125,20.01953125,23.92578125
1508291753.7236905,14.6484375,36.1328125,55.6640625,15.625,3.90625
1508291753.7275968,5.859375,34.66796875,57.12890625,-4.8828125,-13.671875
1508291753.731503,-5.859375,35.15625,62.01171875,3.41796875,-26.3671875
1508291753.7354093,1.953125,35.64453125,65.91796875,22.94921875,-40.52734375
1508291753.7393155,13.18359375,33.69140625,50.29296875,26.3671875,-30.76171875
1508291753.7432218,11.23046875,31.73828125,53.22265625,17.578125,-19.53125
1508291753.747128,3.41796875,33.203125,69.3359375,8.7890625,-17.578125
1508291753.7510343,-0.9765625,31.73828125,69.82421875,7.32421875,13.671875
1508291753.7545993,3.41796875,31.25,74.70703125,12.6953125,2.9296875
1508291753.7585056,6.34765625,34.66796875,96.6796875,9.27734375,-6.34765625
1508291753.7624118,-6.8359375,37.109375,106.4453125,-2.9296875,14.16015625
1508291753.766318,-9.765625,36.62109375,94.23828125,-3.41796875,-29.78515625
1508291753.7702243,3.90625,33.69140625,94.23828125,9.765625,-24.4140625
1508291753.7741306,5.37109375,34.66796875,86.9140625,14.16015625,-23.4375
1508291753.7780368,-0.48828125,33.203125,72.75390625,8.7890625,-43.45703125
1508291753.781943,-12.6953125,30.2734375,64.453125,3.90625,-2.9296875
1508291753.7858493,-2.44140625,32.71484375,61.5234375,14.6484375,4.39453125
1508291753.7897556,15.13671875,32.71484375,70.3125,26.3671875,-17.578125
1508291753.7936618,8.7890625,33.69140625,69.82421875,28.80859375,-15.13671875
1508291753.797568,-5.859375,30.76171875,56.640625,11.71875,-32.2265625
1508291753.798129,3.90625,27.34375,57.12890625,15.625,-8.7890625
1508291753.8020353,17.578125,26.3671875,57.12890625,24.90234375,-5.859375
1508291753.8059416,7.8125,24.4140625,41.50390625,17.578125,-8.30078125
1508291753.8098478,-13.18359375,22.4609375,30.76171875,9.765625,21.97265625
1508291753.813754,-13.18359375,22.4609375,36.1328125,17.08984375,16.11328125
1508291753.8176603,1.953125,19.53125,38.57421875,35.64453125,17.08984375
1508291753.8215666,-0.9765625,20.5078125,37.59765625,27.83203125,27.83203125
1508291753.8254728,-11.23046875,28.3203125,33.203125,10.25390625,-11.23046875
1508291753.829379,-5.859375,28.3203125,32.71484375,16.11328125,-13.18359375
1508291753.8332853,9.27734375,30.2734375,41.015625,41.015625,-0.48828125
1508291753.8371916,8.7890625,30.76171875,37.59765625,44.43359375,15.13671875
1508291753.8410978,-5.37109375,32.71484375,22.94921875,26.85546875,32.2265625
1508291753.8431635,-15.625,35.64453125,24.90234375,14.6484375,12.20703125
1508291753.8470697,-5.37109375,24.4140625,32.2265625,31.73828125,1.46484375
1508291753.850976,5.859375,23.92578125,30.2734375,37.59765625,11.71875
1508291753.8548822,1.953125,31.25,23.92578125,25.87890625,48.33984375
1508291753.8587885,-19.53125,33.69140625,15.13671875,20.01953125,53.22265625
1508291753.8626947,-18.5546875,34.1796875,12.6953125,23.92578125,29.296875
1508291753.866601,3.41796875,29.78515625,9.27734375,27.83203125,32.71484375
1508291753.8705072,1.46484375,29.78515625,2.44140625,11.23046875,-6.34765625
1508291753.8744135,-17.08984375,26.3671875,15.13671875,-2.9296875,34.66796875
1508291753.8783197,-15.625,12.6953125,20.99609375,14.16015625,67.3828125
1508291753.882226,-1.953125,10.25390625,9.27734375,23.4375,-10.25390625
1508291753.8861322,2.44140625,20.99609375,8.30078125,16.11328125,-23.92578125
1508291753.888197,-2.44140625,29.78515625,10.25390625,16.11328125,31.25
1508291753.8921032,-10.25390625,35.15625,12.20703125,12.6953125,-0.9765625
1508291753.8960094,4.8828125,39.0625,16.11328125,21.484375,-24.4140625
1508291753.8999157,2.9296875,38.57421875,14.16015625,21.97265625,30.76171875
1508291753.903822,-18.5546875,39.0625,12.6953125,7.32421875,8.30078125
1508291753.9077282,-16.6015625,37.109375,11.23046875,2.9296875,2.44140625
1508291753.9116344,-1.46484375,35.15625,10.25390625,13.671875,14.6484375
1508291753.9155407,-3.41796875,33.69140625,15.625,19.53125,5.859375
1508291753.919447,-3.41796875,38.0859375,16.6015625,21.97265625,5.859375
1508291753.9233532,-11.71875,41.50390625,10.25390625,20.01953125,14.6484375
1508291753.9272594,-8.30078125,39.55078125,13.18359375,21.484375,41.9921875
1508291753.9311657,7.8125,37.59765625,9.27734375,34.1796875,16.11328125
1508291753.9332247,1.953125,31.73828125,12.20703125,30.76171875,0.48828125
1508291753.937131,-18.5546875,28.80859375,15.625,11.23046875,0.0
1508291753.9410372,-20.01953125,35.15625,19.04296875,8.7890625,-9.27734375
1508291753.9449434,-1.46484375,34.66796875,29.78515625,27.83203125,-18.06640625
1508291753.9488497,1.953125,15.625,30.76171875,32.71484375,3.90625
1508291753.952756,-2.9296875,12.6953125,28.80859375,24.4140625,9.765625
1508291753.9566622,-9.27734375,27.34375,37.109375,19.53125,-12.20703125
1508291753.9605684,2.44140625,32.2265625,58.59375,25.390625,3.41796875
1508291753.9644747,11.23046875,30.76171875,69.3359375,40.52734375,14.16015625
1508291753.968381,0.48828125,24.4140625,62.5,29.78515625,3.90625
1508291753.9722872,-18.5546875,23.92578125,54.19921875,9.765625,7.32421875
1508291753.9761934,-7.8125,22.94921875,57.12890625,18.5546875,24.90234375
1508291753.9932878,4.39453125,23.92578125,60.05859375,30.2734375,39.0625
1508291753.997194,-0.9765625,30.2734375,52.24609375,19.53125,21.484375
1508291754.0011003,-12.20703125,36.1328125,46.38671875,11.71875,9.765625
1508291754.0050066,-12.6953125,37.59765625,42.48046875,24.4140625,37.109375
1508291754.0089128,5.37109375,37.109375,33.203125,32.71484375,-5.37109375
1508291754.012819,2.44140625,36.1328125,20.99609375,20.5078125,-36.62109375
1508291754.0167253,-15.625,30.2734375,16.11328125,7.32421875,-21.97265625
1508291754.0206316,-11.23046875,26.3671875,19.53125,13.18359375,-4.39453125
1508291754.0245378,10.7421875,30.2734375,14.16015625,24.4140625,-15.13671875
1508291754.028444,15.13671875,37.59765625,5.859375,20.99609375,-42.96875
1508291754.0323503,6.8359375,38.0859375,6.8359375,17.578125,-29.78515625
1508291754.0362566,5.37109375,36.62109375,5.37109375,12.6953125,-18.5546875
1508291754.0383272,16.6015625,33.69140625,4.8828125,26.85546875,-9.27734375
1508291754.0422335,20.01953125,34.66796875,10.25390625,34.1796875,-26.85546875
1508291754.0461397,18.5546875,36.1328125,7.32421875,35.64453125,-30.76171875
1508291754.050046,7.8125,33.69140625,12.20703125,50.29296875,9.27734375
1508291754.0539522,-6.8359375,34.66796875,20.5078125,44.921875,-21.484375
1508291754.0578585,-8.30078125,33.203125,20.01953125,40.0390625,-35.64453125
1508291754.0617647,-7.8125,31.25,24.4140625,35.15625,14.6484375
1508291754.065671,-19.53125,30.76171875,23.92578125,22.94921875,4.8828125
1508291754.0695772,-14.6484375,29.296875,20.01953125,27.34375,-12.20703125
1508291754.0734835,2.44140625,28.80859375,20.99609375,26.85546875,10.7421875
1508291754.0773897,2.44140625,29.296875,30.76171875,27.34375,0.9765625
1508291754.081296,-9.27734375,29.296875,37.59765625,20.99609375,-41.50390625
1508291754.0833514,-9.27734375,30.76171875,32.71484375,11.71875,-55.6640625
1508291754.0872576,3.41796875,33.69140625,32.2265625,32.2265625,-32.71484375
1508291754.0911639,11.71875,32.2265625,37.109375,44.43359375,-26.85546875
1508291754.0950701,6.34765625,32.2265625,31.73828125,29.296875,-73.2421875
1508291754.0989764,-1.953125,39.55078125,26.3671875,18.06640625,-32.2265625
1508291754.1028826,6.8359375,35.64453125,33.69140625,27.83203125,14.6484375
1508291754.1067889,11.23046875,23.4375,51.26953125,30.2734375,4.39453125
1508291754.1106951,4.8828125,23.4375,56.15234375,24.4140625,7.8125
1508291754.1146014,-12.6953125,25.87890625,42.96875,19.04296875,-14.16015625
1508291754.1185076,-0.9765625,27.34375,43.9453125,14.16015625,-5.859375
1508291754.1224139,15.13671875,29.296875,53.7109375,33.203125,-8.7890625
1508291754.1263201,0.48828125,31.25,47.8515625,50.78125,-25.87890625
1508291754.1283836,-12.20703125,38.57421875,34.1796875,38.57421875,-16.6015625
1508291754.13229,-7.8125,39.0625,27.34375,34.66796875,4.39453125
1508291754.1361961,3.41796875,35.64453125,32.2265625,43.9453125,1.953125
1508291754.1401024,6.8359375,32.71484375,36.62109375,43.9453125,-2.9296875
1508291754.1440086,-2.9296875,34.66796875,29.78515625,34.1796875,40.52734375
1508291754.147915,-7.32421875,32.2265625,20.99609375,23.4375,17.578125
1508291754.1518211,7.8125,29.296875,21.484375,35.15625,7.32421875
1508291754.1557274,8.30078125,34.66796875,17.08984375,39.55078125,9.27734375
1508291754.1596336,-5.37109375,38.57421875,8.7890625,22.4609375,6.34765625
1508291754.16354,-10.7421875,35.64453125,29.296875,22.4609375,47.36328125
1508291754.1674461,5.37109375,35.15625,51.26953125,36.1328125,36.1328125
1508291754.1713524,14.16015625,33.69140625,51.26953125,40.52734375,2.9296875
1508291754.1734152,10.7421875,34.1796875,62.01171875,35.15625,0.9765625
1508291754.1773214,0.0,42.96875,62.98828125,20.01953125,-0.9765625
1508291754.1812277,2.44140625,41.9921875,48.828125,34.66796875,-6.8359375
1508291754.185134,21.484375,40.52734375,43.9453125,45.8984375,-17.578125
1508291754.1890402,10.7421875,37.59765625,44.43359375,38.0859375,0.48828125
1508291754.1929464,-8.30078125,32.2265625,35.64453125,23.92578125,4.39453125
1508291754.1968527,7.32421875,34.1796875,31.25,22.94921875,-12.20703125
1508291754.200759,24.4140625,32.2265625,22.4609375,31.25,-40.0390625
1508291754.2046652,18.06640625,31.73828125,22.4609375,21.97265625,-53.22265625
1508291754.2085714,6.8359375,35.64453125,28.3203125,26.3671875,-26.85546875
1508291754.2124777,-3.41796875,37.109375,10.7421875,28.80859375,-5.37109375
1508291754.216384,12.6953125,37.109375,5.37109375,34.66796875,0.9765625
1508291754.2181292,23.92578125,36.62109375,6.8359375,41.50390625,28.80859375
1508291754.2220354,18.06640625,39.0625,4.39453125,40.0390625,18.5546875
1508291754.2259417,5.37109375,37.109375,3.41796875,36.62109375,-33.203125
1508291754.229848,12.20703125,35.64453125,7.8125,46.38671875,-22.94921875
1508291754.2337542,26.85546875,38.57421875,15.625,51.7578125,16.6015625
1508291754.2376604,17.578125,38.0859375,16.11328125,44.921875,37.59765625
1508291754.2415667,4.39453125,34.66796875,11.71875,30.2734375,45.41015625
1508291754.245473,4.8828125,34.66796875,6.34765625,21.484375,-33.69140625
1508291754.2493792,19.04296875,40.0390625,21.97265625,28.80859375,-31.25
1508291754.2532854,21.484375,38.57421875,28.3203125,36.62109375,17.578125
1508291754.2571917,0.48828125,34.1796875,15.13671875,30.2734375,-3.41796875
1508291754.261098,0.48828125,30.2734375,18.06640625,25.87890625,10.7421875
1508291754.263168,13.18359375,28.80859375,27.83203125,43.45703125,25.87890625
1508291754.2670743,5.859375,31.73828125,20.5078125,49.31640625,-0.48828125
1508291754.2709806,-3.41796875,36.1328125,10.25390625,41.50390625,12.6953125
1508291754.2748868,-4.8828125,37.59765625,12.20703125,44.921875,39.55078125
1508291754.278793,8.30078125,37.109375,11.71875,63.4765625,34.1796875
1508291754.2826993,12.20703125,32.71484375,13.18359375,82.03125,32.2265625
1508291754.2866056,13.18359375,33.69140625,8.30078125,103.02734375,10.7421875
1508291754.2905118,8.30078125,34.1796875,13.18359375,116.2109375,-10.7421875
1508291754.294418,6.8359375,30.76171875,33.203125,143.06640625,13.671875
1508291754.2983243,14.6484375,27.34375,28.80859375,171.875,41.50390625
1508291754.3022306,5.859375,24.90234375,16.6015625,164.0625,18.06640625
1508291754.3061368,-8.30078125,29.296875,12.20703125,150.87890625,-30.76171875
1508291754.3081932,0.48828125,31.73828125,16.6015625,160.15625,-13.18359375
1508291754.3120995,11.71875,31.73828125,20.01953125,178.7109375,-16.11328125
1508291754.3160057,5.37109375,26.3671875,20.99609375,177.24609375,3.90625
1508291754.319912,-9.765625,24.90234375,22.94921875,165.0390625,32.2265625
1508291754.3238182,-17.578125,27.34375,12.6953125,166.50390625,7.32421875
1508291754.3277245,5.37109375,30.2734375,10.7421875,180.6640625,22.4609375
1508291754.3316307,29.78515625,36.62109375,9.27734375,183.59375,-6.34765625
1508291754.335537,25.390625,37.109375,17.578125,172.8515625,-14.16015625
1508291754.3394432,1.46484375,35.15625,22.4609375,171.38671875,31.25
1508291754.3433495,-15.13671875,32.71484375,10.7421875,171.875,29.78515625
1508291754.3472557,-0.48828125,28.80859375,14.16015625,181.640625,23.4375
1508291754.351162,-7.32421875,22.4609375,18.5546875,175.78125,-17.578125
1508291754.3682363,-32.71484375,18.5546875,17.08984375,154.296875,-39.55078125
1508291754.3721426,-19.53125,17.578125,16.11328125,160.15625,-25.390625
1508291754.3760488,-5.859375,19.53125,14.16015625,166.015625,-12.6953125
1508291754.379955,-7.8125,23.4375,16.11328125,167.48046875,20.01953125
1508291754.3838613,-19.53125,23.92578125,17.578125,146.484375,43.9453125
1508291754.3877676,-13.671875,23.92578125,7.32421875,105.95703125,7.32421875
1508291754.3916738,-0.9765625,23.92578125,9.27734375,79.58984375,-9.27734375
1508291754.39558,-2.44140625,20.99609375,18.5546875,44.921875,23.92578125
1508291754.3994863,-11.71875,14.6484375,13.18359375,0.48828125,22.4609375
1508291754.4033926,-21.484375,15.625,16.6015625,-27.34375,13.671875
1508291754.4072988,-3.90625,21.484375,28.80859375,-15.625,13.671875
1508291754.411205,7.32421875,24.4140625,32.2265625,-5.859375,7.32421875
1508291754.413289,0.48828125,27.34375,26.3671875,-23.92578125,1.953125
1508291754.4171953,-5.859375,28.3203125,18.5546875,-43.45703125,2.44140625
1508291754.4211016,4.39453125,34.1796875,20.99609375,-37.59765625,20.01953125
1508291754.4250078,19.53125,37.59765625,18.06640625,-24.90234375,18.06640625
1508291754.428914,13.671875,30.76171875,12.20703125,-34.66796875,5.37109375
1508291754.4328203,1.46484375,26.85546875,12.6953125,-52.734375,-4.39453125
1508291754.4367266,5.859375,26.85546875,25.87890625,-39.55078125,24.4140625
1508291754.4406328,14.6484375,26.85546875,41.015625,-25.390625,51.26953125
1508291754.444539,14.16015625,27.34375,37.109375,-21.97265625,68.359375
1508291754.4484453,7.8125,31.25,18.06640625,-40.52734375,20.5078125
1508291754.4523516,12.20703125,33.69140625,20.5078125,-42.48046875,12.6953125
1508291754.4562578,30.2734375,32.2265625,29.78515625,-15.625,41.9921875
1508291754.4582999,30.2734375,33.69140625,26.3671875,-28.3203125,39.0625
1508291754.4622061,6.8359375,34.66796875,26.85546875,-46.875,70.3125
1508291754.4661124,-3.41796875,30.2734375,31.25,-53.22265625,17.08984375
1508291754.4700186,7.8125,29.296875,38.0859375,-38.0859375,50.78125
1508291754.4739249,21.484375,34.1796875,37.59765625,-30.2734375,93.75
1508291754.4778311,19.53125,33.69140625,31.73828125,-39.0625,77.63671875
1508291754.4817374,4.39453125,33.69140625,37.109375,-45.8984375,80.078125
1508291754.4856436,13.671875,33.203125,55.17578125,-30.2734375,70.3125
1508291754.4895499,24.4140625,28.3203125,59.5703125,-22.4609375,40.0390625
1508291754.4934561,19.04296875,28.80859375,56.640625,-41.50390625,33.69140625
1508291754.4973624,7.8125,35.64453125,62.98828125,-53.22265625,44.43359375
1508291754.5012686,3.90625,36.62109375,60.05859375,-49.8046875,46.38671875
1508291754.5033526,17.578125,37.109375,56.15234375,-42.48046875,31.25
1508291754.507259,19.04296875,38.0859375,55.6640625,-39.0625,7.8125
1508291754.5111651,5.37109375,37.109375,54.6875,-39.55078125,32.2265625
1508291754.5150714,5.37109375,37.109375,48.828125,-40.0390625,22.94921875
1508291754.5189776,20.99609375,32.71484375,54.19921875,-25.390625,0.9765625
1508291754.522884,26.85546875,26.85546875,57.6171875,-18.06640625,1.953125
1508291754.5267901,7.8125,33.69140625,56.15234375,-33.203125,12.20703125
1508291754.5306964,0.48828125,37.59765625,55.17578125,-42.96875,20.5078125
1508291754.5346026,18.06640625,34.66796875,57.6171875,-31.25,-12.6953125
1508291754.538509,15.13671875,34.66796875,84.47265625,-25.390625,9.27734375
1508291754.5424151,3.41796875,36.62109375,97.65625,-31.73828125,-2.9296875
1508291754.5463214,-5.37109375,37.109375,88.37890625,-39.0625,-37.59765625
1508291754.5483372,-0.48828125,33.69140625,93.75,-31.73828125,-0.9765625
1508291754.5522435,10.7421875,30.76171875,104.4921875,-19.53125,26.3671875
1508291754.5561497,10.7421875,30.2734375,97.65625,-27.83203125,23.4375
1508291754.560056,-10.25390625,27.83203125,80.078125,-40.52734375,-17.08984375
1508291754.5639622,-8.30078125,27.34375,84.47265625,-31.73828125,4.8828125
1508291754.5678685,7.8125,27.83203125,88.37890625,-23.4375,39.0625
1508291754.5717747,8.30078125,27.34375,79.58984375,-23.4375,19.04296875
1508291754.575681,2.44140625,28.3203125,69.82421875,-31.73828125,5.859375
1508291754.5795872,-8.30078125,23.4375,68.84765625,-42.48046875,21.97265625
1508291754.5834935,4.8828125,21.97265625,82.51953125,-12.20703125,28.3203125
1508291754.5873997,9.27734375,25.87890625,82.03125,-2.9296875,36.62109375
1508291754.591306,-6.34765625,27.83203125,62.98828125,-23.4375,52.24609375
1508291754.5933695,-13.18359375,30.2734375,38.57421875,-23.92578125,8.7890625
1508291754.5972757,2.44140625,28.3203125,31.25,-6.34765625,-18.06640625
1508291754.601182,12.6953125,29.296875,26.85546875,5.859375,17.08984375
1508291754.6050882,7.8125,29.78515625,24.4140625,-1.953125,24.4140625
1508291754.6089945,-5.37109375,24.90234375,26.85546875,-10.25390625,36.1328125
1508291754.6129007,-4.8828125,28.3203125,24.4140625,-5.37109375,42.96875
1508291754.616807,4.39453125,28.80859375,28.3203125,-0.9765625,3.41796875
1508291754.6207132,-1.46484375,23.4375,23.4375,-11.23046875,-41.015625
1508291754.6246195,-18.5546875,24.90234375,28.3203125,-20.01953125,-33.69140625
1508291754.6285257,-10.7421875,27.83203125,39.55078125,2.9296875,-12.6953125
1508291754.632432,11.23046875,27.34375,35.64453125,16.6015625,-25.390625
1508291754.6363382,6.8359375,23.92578125,34.1796875,16.6015625,-14.16015625
1508291754.6383994,-5.37109375,23.4375,45.41015625,7.32421875,19.53125
1508291754.6423056,-12.20703125,22.94921875,50.29296875,1.953125,22.94921875
1508291754.6462119,4.39453125,25.390625,50.78125,15.13671875,10.7421875
1508291754.650118,14.16015625,31.73828125,55.17578125,23.92578125,20.99609375
1508291754.6540244,5.37109375,34.66796875,47.36328125,19.04296875,-3.90625
1508291754.6579306,0.48828125,34.66796875,31.73828125,7.8125,-30.2734375
1508291754.6618369,6.34765625,27.83203125,22.4609375,17.08984375,-16.6015625
1508291754.665743,7.32421875,24.90234375,30.2734375,25.87890625,3.41796875
1508291754.6696494,0.0,29.296875,36.62109375,25.390625,34.1796875
1508291754.6735556,-22.4609375,31.25,24.4140625,18.06640625,18.5546875
1508291754.6774619,-22.94921875,30.2734375,10.7421875,10.25390625,0.48828125
1508291754.681368,1.46484375,34.66796875,13.18359375,18.5546875,17.08984375
1508291754.6829307,2.9296875,33.203125,18.06640625,28.3203125,12.20703125
1508291754.686837,-5.859375,30.2734375,3.90625,16.6015625,-11.23046875
1508291754.6907432,-4.8828125,34.66796875,-0.48828125,10.7421875,-14.16015625
1508291754.6946495,6.34765625,35.64453125,9.27734375,15.13671875,3.41796875
1508291754.6985557,15.625,35.15625,15.13671875,21.484375,21.97265625
1508291754.702462,6.8359375,36.1328125,13.671875,17.08984375,-24.4140625
1508291754.7063682,-9.765625,36.62109375,13.18359375,5.859375,-66.89453125
1508291754.7102745,-2.44140625,32.71484375,22.4609375,0.48828125,-32.2265625
1508291754.7141807,2.9296875,27.83203125,26.3671875,13.671875,-29.78515625
1508291754.718087,-1.953125,26.3671875,17.578125,15.625,-14.16015625
1508291754.7219932,-6.8359375,25.87890625,8.7890625,0.0,-0.48828125
1508291754.7258995,-3.90625,22.94921875,11.23046875,9.765625,10.7421875
1508291754.7429726,4.8828125,19.04296875,10.25390625,18.06640625,-1.46484375
1508291754.7468789,2.44140625,21.484375,10.25390625,8.30078125,-1.46484375
1508291754.750785,-11.71875,20.99609375,6.34765625,-2.44140625,13.18359375
1508291754.7546914,-7.32421875,20.01953125,1.953125,16.11328125,19.53125
1508291754.7585976,17.08984375,21.97265625,-1.953125,33.203125,57.12890625
1508291754.7625039,13.18359375,23.4375,-16.6015625,17.578125,16.11328125
1508291754.76641,-1.46484375,24.4140625,-17.08984375,10.7421875,-30.2734375
1508291754.7703164,6.8359375,22.94921875,-2.44140625,18.5546875,-23.4375
1508291754.7742226,15.625,20.99609375,3.90625,35.64453125,-11.71875
1508291754.7781289,11.23046875,19.53125,0.9765625,37.59765625,-34.66796875
1508291754.782035,-1.46484375,20.99609375,0.0,31.73828125,-23.92578125
1508291754.7859414,-5.37109375,24.90234375,5.37109375,36.62109375,13.671875
1508291754.7890062,8.30078125,25.87890625,3.90625,41.015625,-4.39453125
1508291754.7929125,17.578125,21.484375,-0.9765625,40.0390625,-7.8125
1508291754.7968187,12.6953125,20.5078125,-4.39453125,32.2265625,34.1796875
1508291754.800725,0.9765625,25.390625,-10.7421875,21.97265625,13.18359375
1508291754.8046312,2.9296875,27.83203125,-10.7421875,32.2265625,-2.44140625
1508291754.8085375,4.39453125,24.90234375,-12.20703125,32.71484375,20.99609375
1508291754.8124437,2.44140625,20.5078125,-15.625,17.08984375,-1.953125
1508291754.81635,-6.34765625,20.5078125,-11.23046875,11.71875,0.9765625
1508291754.8202562,-9.765625,22.94921875,-18.5546875,18.06640625,-16.11328125
1508291754.8241625,8.30078125,25.390625,-25.87890625,29.78515625,-22.4609375
1508291754.8280687,12.20703125,25.87890625,-19.04296875,29.78515625,5.859375
1508291754.831975,0.48828125,22.94921875,-17.578125,21.484375,33.203125
1508291754.8335395,-2.9296875,21.97265625,-15.13671875,16.11328125,12.6953125
1508291754.8374457,11.71875,22.4609375,-2.9296875,21.484375,9.27734375
1508291754.841352,24.4140625,24.90234375,4.8828125,27.83203125,23.4375
1508291754.8452582,5.859375,24.4140625,-0.9765625,20.5078125,-6.34765625
1508291754.8491645,-10.7421875,24.4140625,-5.37109375,16.11328125,-38.0859375
1508291754.8530707,8.30078125,25.390625,-2.44140625,32.71484375,9.765625
1508291754.856977,16.11328125,25.87890625,-5.859375,41.9921875,11.71875
1508291754.8608832,6.8359375,29.296875,-7.8125,38.57421875,-11.71875
1508291754.8647895,-8.7890625,30.76171875,-13.671875,22.4609375,-19.04296875
1508291754.8686957,-11.23046875,30.76171875,-14.6484375,19.04296875,-42.96875
1508291754.872602,-1.953125,28.3203125,4.8828125,38.0859375,-2.44140625
1508291754.8765082,-0.9765625,26.85546875,2.44140625,49.8046875,14.16015625
1508291754.8780715,-14.6484375,31.73828125,-9.27734375,30.2734375,-32.71484375
1508291754.8819778,-17.578125,36.62109375,-8.7890625,22.94921875,-9.27734375
1508291754.885884,0.0,36.62109375,-5.859375,47.8515625,45.41015625
1508291754.8897903,7.32421875,34.1796875,-9.765625,53.22265625,52.24609375
1508291754.8936965,-11.23046875,34.66796875,-19.53125,42.96875,20.5078125
1508291754.8976028,-20.99609375,32.2265625,-21.484375,44.921875,15.625
1508291754.901509,-2.9296875,29.296875,-13.18359375,64.94140625,39.55078125
1508291754.9054153,3.41796875,27.34375,-3.41796875,67.87109375,35.64453125
1508291754.9093215,-8.7890625,24.90234375,-6.8359375,49.8046875,26.3671875
1508291754.9132278,-14.16015625,28.3203125,-1.46484375,50.78125,7.32421875
1508291754.917134,0.9765625,28.80859375,1.953125,79.58984375,18.06640625
1508291754.9210403,3.41796875,25.390625,-4.8828125,91.796875,0.9765625
1508291754.9231036,0.48828125,27.34375,-3.41796875,89.35546875,14.16015625
1508291754.9270098,-11.71875,28.3203125,-6.34765625,97.65625,32.71484375
1508291754.930916,-15.13671875,25.390625,-1.953125,117.67578125,12.20703125
1508291754.9348223,1.46484375,25.87890625,3.41796875,132.32421875,21.97265625
1508291754.9387286,3.41796875,23.4375,1.46484375,134.27734375,6.34765625
1508291754.9426348,-7.32421875,24.90234375,-5.37109375,129.8828125,-0.48828125
1508291754.946541,-2.44140625,26.85546875,-9.765625,134.27734375,14.16015625
1508291754.9504473,12.6953125,27.34375,-15.13671875,148.92578125,-14.6484375
1508291754.9543536,16.6015625,29.78515625,-20.99609375,146.484375,-34.1796875
1508291754.9582598,5.859375,29.78515625,-12.20703125,145.01953125,-19.04296875
1508291754.962166,-3.41796875,29.296875,-13.671875,134.765625,-33.69140625
1508291754.9660723,10.25390625,25.87890625,-13.671875,141.6015625,-28.3203125
1508291754.9681349,18.06640625,23.4375,-9.27734375,150.390625,-18.5546875
1508291754.9720411,3.90625,24.90234375,-5.859375,148.92578125,-29.296875
1508291754.9759474,0.0,24.4140625,-4.8828125,152.34375,-56.640625
1508291754.9798536,31.25,33.69140625,-6.34765625,174.31640625,-38.0859375
1508291754.9837599,31.73828125,44.921875,-8.30078125,165.52734375,-20.99609375
1508291754.9876661,10.7421875,45.41015625,-13.671875,128.90625,1.953125
1508291754.9915724,-7.32421875,41.015625,-22.4609375,112.3046875,17.578125
1508291754.9954786,-17.08984375,39.0625,-31.25,102.5390625,-4.8828125
1508291754.9993849,11.23046875,43.45703125,-18.06640625,114.2578125,34.1796875
1508291755.0032911,16.11328125,48.828125,-18.5546875,115.72265625,50.29296875
1508291755.0071974,-2.44140625,46.875,-32.71484375,100.5859375,22.4609375
1508291755.0111036,5.37109375,47.36328125,-30.76171875,107.91015625,8.30078125
1508291755.0136707,20.5078125,47.36328125,-25.87890625,121.09375,13.18359375
1508291755.017577,26.3671875,44.921875,-31.73828125,126.953125,29.296875
1508291755.0214832,15.625,49.31640625,-41.015625,126.46484375,-8.7890625
1508291755.0253894,6.34765625,51.7578125,-34.1796875,123.046875,-25.87890625
1508291755.0292957,20.99609375,48.828125,-26.85546875,138.18359375,-14.16015625
1508291755.033202,32.2265625,45.8984375,-23.4375,152.34375,-0.48828125
1508291755.0371082,23.92578125,41.015625,-27.83203125,139.6484375,-15.625
1508291755.0410144,10.25390625,37.59765625,-31.25,125.48828125,-72.265625
1508291755.0449207,25.87890625,37.109375,-7.32421875,150.87890625,-33.69140625
1508291755.048827,39.55078125,38.0859375,3.90625,163.0859375,-27.34375
1508291755.0527332,33.203125,41.50390625,2.9296875,149.90234375,-37.109375
1508291755.0566394,24.90234375,43.9453125,1.46484375,131.34765625,10.25390625
1508291755.0582001,19.04296875,41.9921875,0.48828125,122.55859375,4.39453125
1508291755.0621064,30.76171875,40.52734375,-3.41796875,136.23046875,-38.57421875
1508291755.0660126,33.69140625,38.0859375,-8.30078125,132.32421875,-38.0859375
1508291755.0699189,14.16015625,36.1328125,-11.71875,117.67578125,-29.296875
1508291755.0738251,4.8828125,35.64453125,-12.6953125,117.1875,-26.3671875
1508291755.0777314,21.484375,30.76171875,-12.20703125,131.34765625,20.99609375
1508291755.0816376,21.97265625,27.34375,-22.4609375,118.1640625,-9.27734375
1508291755.0855439,17.578125,31.73828125,-14.16015625,101.07421875,-19.53125
1508291755.0894501,17.08984375,36.62109375,-5.859375,106.93359375,11.23046875
1508291755.0933564,18.5546875,36.1328125,-10.7421875,113.76953125,-2.44140625
1508291755.0972626,22.94921875,35.64453125,-9.765625,104.4921875,13.18359375
1508291755.1011689,18.06640625,35.15625,-6.8359375,92.7734375,45.8984375
1508291755.1182423,1.46484375,36.1328125,-9.765625,74.70703125,24.4140625
1508291755.1221485,1.46484375,34.66796875,-13.18359375,70.80078125,0.0
1508291755.1260548,12.6953125,32.2265625,-5.37109375,86.42578125,49.31640625
1508291755.129961,16.11328125,28.3203125,2.44140625,85.44921875,55.17578125
1508291755.1338673,1.46484375,19.04296875,-2.9296875,74.70703125,4.39453125
1508291755.1377735,-1.953125,22.4609375,-4.8828125,83.984375,9.27734375
1508291755.1416798,19.04296875,29.296875,3.90625,92.7734375,16.6015625
1508291755.145586,27.34375,31.73828125,14.6484375,94.7265625,31.25
1508291755.1494923,13.18359375,32.71484375,14.16015625,93.75,30.2734375
1508291755.1533985,0.48828125,30.76171875,12.6953125,80.078125,-3.41796875
1508291755.1573048,14.6484375,31.73828125,19.04296875,83.984375,14.6484375
1508291755.161211,19.53125,38.57421875,13.671875,83.984375,31.25
1508291755.163294,-0.48828125,40.52734375,-6.8359375,77.1484375,-2.9296875
1508291755.1672003,-12.6953125,38.57421875,-17.578125,61.5234375,7.8125
1508291755.1711066,-0.9765625,38.57421875,-20.01953125,64.94140625,27.34375
1508291755.1750128,18.06640625,30.76171875,-24.4140625,83.984375,19.04296875
1508291755.178919,14.16015625,26.85546875,-28.3203125,76.66015625,23.4375
1508291755.1828253,-9.765625,32.2265625,-23.92578125,63.96484375,28.3203125
1508291755.1867316,-4.39453125,32.2265625,-9.765625,64.453125,13.671875
1508291755.1906378,11.71875,31.25,3.90625,75.68359375,45.41015625
1508291755.194544,9.27734375,31.25,1.953125,77.63671875,67.3828125
1508291755.1984503,-14.6484375,31.73828125,-6.8359375,51.7578125,16.11328125
1508291755.2023566,-19.04296875,33.203125,5.37109375,51.7578125,29.296875
1508291755.2062628,6.34765625,34.66796875,17.578125,77.1484375,61.03515625
1508291755.208306,10.25390625,34.1796875,14.6484375,75.68359375,41.50390625
1508291755.2122123,-9.27734375,31.25,7.32421875,64.453125,60.05859375
1508291755.2161186,-10.25390625,32.2265625,5.859375,61.5234375,71.2890625
1508291755.2200248,11.23046875,36.1328125,3.41796875,77.1484375,57.12890625
1508291755.223931,14.6484375,38.0859375,-1.953125,75.1953125,41.9921875
1508291755.2278373,-4.39453125,39.55078125,-1.953125,61.5234375,31.73828125
1508291755.2317436,-10.25390625,37.109375,-1.953125,56.15234375,5.859375
1508291755.2356498,3.90625,33.203125,6.8359375,71.77734375,29.296875
1508291755.239556,18.06640625,33.69140625,4.39453125,82.03125,31.25
1508291755.2434623,10.25390625,36.62109375,3.41796875,67.3828125,18.5546875
1508291755.2473686,-5.859375,37.109375,13.18359375,68.84765625,54.6875
1508291755.2512748,-4.39453125,30.2734375,11.23046875,76.66015625,22.94921875
1508291755.2533445,5.859375,26.85546875,10.7421875,79.58984375,9.765625
1508291755.2572508,10.7421875,28.3203125,-4.8828125,62.98828125,43.9453125
1508291755.261157,-4.39453125,29.78515625,-15.625,42.96875,22.4609375
1508291755.2650633,-14.16015625,26.3671875,-12.20703125,48.828125,16.11328125
1508291755.2689695,-1.953125,7.8125,-12.20703125,62.5,35.64453125
1508291755.2728758,2.44140625,-22.4609375,-14.16015625,63.96484375,34.66796875
1508291755.276782,-6.8359375,-38.0859375,-17.08984375,54.19921875,14.6484375
1508291755.2806883,-20.01953125,-15.625,-21.484375,55.6640625,10.7421875
1508291755.2845945,-9.27734375,13.671875,-23.92578125,59.08203125,-26.85546875
1508291755.2885008,4.8828125,28.3203125,-10.25390625,61.5234375,-12.20703125
1508291755.292407,-3.41796875,32.71484375,-7.8125,63.4765625,-12.20703125
1508291755.2963133,-17.578125,35.64453125,-21.484375,49.8046875,-25.87890625
1508291755.313381,-7.8125,37.59765625,-24.90234375,58.10546875,20.5078125
1508291755.3172872,7.32421875,34.66796875,-21.484375,67.87109375,41.015625
1508291755.3211935,3.41796875,36.62109375,-18.06640625,64.453125,29.78515625
1508291755.3250997,-5.37109375,35.15625,-23.4375,51.26953125,-16.6015625
1508291755.329006,-9.27734375,27.34375,-26.3671875,46.875,-1.46484375
1508291755.3329122,-2.44140625,24.4140625,-23.4375,58.59375,10.25390625
1508291755.3368185,4.8828125,25.87890625,-21.97265625,61.03515625,5.37109375
1508291755.3407247,-8.30078125,26.3671875,-41.9921875,41.50390625,-1.953125
1508291755.344631,-12.6953125,24.4140625,-56.15234375,27.83203125,-30.2734375
1508291755.3485372,4.39453125,23.4375,-36.62109375,57.6171875,18.06640625
1508291755.3524435,11.71875,21.97265625,-41.50390625,69.3359375,-3.90625
1508291755.3563497,0.9765625,24.90234375,-37.59765625,49.8046875,2.9296875
1508291755.3434043,-16.11328125,27.83203125,-20.01953125,44.921875,41.9921875
1508291755.3473105,-4.8828125,24.4140625,-7.8125,55.17578125,22.4609375
1508291755.3512168,4.8828125,21.484375,3.90625,60.05859375,35.64453125
1508291755.355123,-4.39453125,22.94921875,6.8359375,57.12890625,54.6875
1508291755.3590293,-14.6484375,26.3671875,0.48828125,49.8046875,22.4609375
1508291755.3629355,0.0,27.83203125,0.0,52.24609375,-13.18359375
1508291755.3668418,21.484375,27.34375,11.23046875,56.640625,-16.11328125
1508291755.370748,12.20703125,26.85546875,18.5546875,50.78125,-28.80859375
1508291755.3746543,-9.27734375,24.90234375,23.92578125,41.50390625,-12.6953125
1508291755.3785605,-7.32421875,25.390625,27.83203125,42.96875,15.625
1508291755.3824668,6.8359375,28.80859375,28.80859375,48.828125,8.30078125
1508291755.386373,8.30078125,30.2734375,22.94921875,33.69140625,1.46484375
1508291755.388434,-5.37109375,31.25,32.2265625,21.97265625,20.5078125
1508291755.3923402,-9.765625,33.203125,33.69140625,34.1796875,7.8125
1508291755.3962464,3.90625,35.15625,25.390625,41.9921875,-20.01953125
1508291755.4001527,8.7890625,34.1796875,30.76171875,41.50390625,-25.87890625
1508291755.404059,-6.34765625,31.73828125,37.59765625,28.80859375,-15.13671875
1508291755.4079652,-19.04296875,29.296875,28.80859375,23.92578125,-32.71484375
1508291755.4118714,-10.7421875,27.34375,18.5546875,25.87890625,-63.96484375
1508291755.4157777,-0.9765625,25.390625,18.5546875,23.92578125,-49.8046875
1508291755.419684,-1.953125,27.34375,23.4375,30.2734375,-22.94921875
1508291755.4235902,-11.23046875,30.2734375,14.6484375,14.16015625,-33.203125
1508291755.4274964,-7.8125,27.34375,14.16015625,16.6015625,-25.390625
1508291755.4314027,4.8828125,23.92578125,26.3671875,35.15625,0.0
1508291755.4329665,-2.44140625,24.4140625,26.85546875,34.66796875,9.765625
1508291755.4368727,-21.97265625,29.78515625,24.90234375,20.01953125,10.25390625
1508291755.440779,-22.4609375,31.73828125,35.15625,20.99609375,26.85546875
1508291755.4446852,-5.37109375,28.3203125,45.8984375,35.15625,41.50390625
1508291755.4485915,3.90625,27.83203125,40.0390625,38.0859375,24.90234375
1508291755.4524977,-6.34765625,26.85546875,26.85546875,35.64453125,4.8828125
1508291755.456404,-10.7421875,25.87890625,16.6015625,24.90234375,-39.0625
1508291755.4603102,6.8359375,26.3671875,28.3203125,50.29296875,-32.71484375
1508291755.4642165,16.11328125,25.87890625,41.015625,75.1953125,9.765625
1508291755.4681227,0.9765625,23.4375,28.80859375,59.08203125,-0.9765625
1508291755.472029,-14.6484375,23.92578125,23.92578125,46.875,-7.32421875
1508291755.4759352,0.9765625,23.92578125,32.71484375,52.734375,8.30078125
1508291755.4784977,11.23046875,18.5546875,27.83203125,64.94140625,27.34375
1508291755.482404,2.9296875,19.53125,17.08984375,62.5,-10.7421875
1508291755.4863102,-8.7890625,23.4375,19.04296875,49.31640625,-31.73828125
1508291755.4902165,-0.48828125,24.4140625,34.66796875,56.15234375,8.30078125
1508291755.4941227,12.6953125,24.4140625,46.875,64.453125,0.48828125
1508291755.498029,-0.48828125,18.06640625,34.66796875,56.15234375,-6.8359375
1508291755.5019352,-11.71875,16.11328125,33.69140625,46.875,16.11328125
1508291755.5058415,1.953125,23.4375,51.7578125,57.12890625,17.578125
1508291755.5097477,20.01953125,32.71484375,49.8046875,55.6640625,10.25390625
1508291755.513654,15.625,41.9921875,42.96875,42.48046875,20.99609375
1508291755.5175602,6.34765625,45.8984375,44.43359375,27.83203125,41.9921875
1508291755.5214665,13.18359375,45.41015625,39.55078125,-5.37109375,20.01953125
1508291755.5385427,32.2265625,44.921875,41.015625,-23.4375,-21.484375
1508291755.542449,42.48046875,46.875,47.8515625,-31.73828125,-12.20703125
1508291755.5463552,32.2265625,46.38671875,56.15234375,-51.26953125,20.99609375
1508291755.5502615,18.5546875,43.9453125,57.12890625,-71.77734375,26.3671875
1508291755.5541677,28.3203125,43.45703125,50.78125,-67.87109375,25.87890625
1508291755.558074,39.55078125,40.52734375,48.33984375,-69.82421875,-7.32421875
1508291755.5619802,40.52734375,37.109375,52.734375,-76.66015625,-30.76171875
1508291755.5658865,29.78515625,38.57421875,50.78125,-83.49609375,-40.52734375
1508291755.5697927,27.34375,40.0390625,35.15625,-86.42578125,-36.1328125
1508291755.573699,40.0390625,40.0390625,30.76171875,-83.49609375,-1.46484375
1508291755.5776052,33.69140625,39.55078125,41.9921875,-78.125,-3.90625
1508291755.5815115,13.671875,37.109375,34.66796875,-86.9140625,-23.4375
1508291755.5830715,15.13671875,36.1328125,18.5546875,-106.93359375,-42.96875
1508291755.5869777,33.69140625,35.15625,23.92578125,-96.6796875,-31.73828125
1508291755.590884,35.15625,37.59765625,28.3203125,-83.0078125,14.6484375
1508291755.5947902,17.578125,39.0625,18.5546875,-98.6328125,22.94921875
1508291755.5986965,1.953125,37.59765625,6.34765625,-119.140625,16.6015625
1508291755.6026027,14.16015625,39.0625,3.90625,-112.79296875,26.85546875
1508291755.606509,22.4609375,35.15625,6.8359375,-100.5859375,24.4140625
1508291755.6104152,18.06640625,28.80859375,2.9296875,-113.28125,23.92578125
1508291755.6143215,6.34765625,25.87890625,-4.39453125,-125.48828125,11.23046875
1508291755.6182277,16.11328125,28.3203125,4.39453125,-106.93359375,-11.23046875
1508291755.622134,30.2734375,32.2265625,14.6484375,-88.8671875,21.97265625
1508291755.6260402,23.4375,33.69140625,0.48828125,-98.6328125,26.85546875
1508291755.628105,3.41796875,33.203125,-5.859375,-106.4453125,3.90625
1508291755.6320112,-1.46484375,29.78515625,-5.37109375,-103.02734375,-14.16015625
1508291755.6359174,8.30078125,24.4140625,-5.859375,-84.47265625,-28.80859375
1508291755.6398237,5.37109375,23.4375,-11.23046875,-73.73046875,-1.46484375
1508291755.64373,-3.41796875,24.90234375,-16.11328125,-77.1484375,31.25
1508291755.6476362,-10.25390625,23.92578125,-15.13671875,-67.87109375,17.08984375
1508291755.6515424,6.34765625,29.78515625,-11.23046875,-55.6640625,-2.9296875
1508291755.6554487,20.99609375,35.15625,-16.6015625,-59.08203125,-5.37109375
1508291755.659355,7.32421875,35.15625,-30.76171875,-69.82421875,12.6953125
1508291755.6632612,-10.25390625,34.1796875,-23.92578125,-71.2890625,39.55078125
1508291755.6671674,1.953125,30.76171875,-17.578125,-53.7109375,24.4140625
1508291755.6710737,13.671875,23.92578125,-25.390625,-35.64453125,33.203125
1508291755.6731372,5.859375,23.92578125,-19.04296875,-26.3671875,62.5
1508291755.6770434,-10.25390625,24.4140625,-10.25390625,-32.2265625,78.125
1508291755.6809497,-1.46484375,21.97265625,-10.7421875,-26.3671875,80.078125
1508291755.684856,18.5546875,27.34375,-15.13671875,-20.01953125,93.26171875
1508291755.6887622,13.18359375,29.296875,-10.25390625,-25.390625,113.28125
1508291755.6926684,-4.39453125,28.3203125,-6.34765625,-39.0625,63.96484375
1508291755.6965747,-1.953125,32.71484375,-10.25390625,-45.8984375,17.578125
1508291755.700481,18.06640625,28.3203125,-13.18359375,-34.66796875,22.94921875
1508291755.7043872,17.578125,20.5078125,-6.34765625,-33.203125,59.08203125
1508291755.7082934,9.27734375,20.5078125,2.44140625,-29.78515625,23.4375
1508291755.7121997,11.71875,23.4375,-5.859375,-32.2265625,3.90625
1508291755.716106,23.4375,22.94921875,-7.8125,-27.34375,31.73828125
1508291755.7181702,28.80859375,22.4609375,-6.8359375,-16.6015625,53.22265625
1508291755.7220764,16.11328125,23.4375,-7.32421875,-19.04296875,33.203125
1508291755.7259827,-1.46484375,20.99609375,-9.765625,-23.4375,-7.32421875
1508291755.729889,9.27734375,18.06640625,-10.25390625,-15.625,-12.20703125
1508291755.7337952,20.5078125,17.578125,-10.25390625,-8.30078125,-7.8125
1508291755.7377014,12.20703125,16.6015625,-16.11328125,-14.6484375,3.90625
1508291755.7416077,-5.859375,17.578125,-24.90234375,-17.08984375,16.11328125
1508291755.745514,-0.9765625,24.4140625,-26.85546875,-13.671875,9.765625
1508291755.7494202,14.16015625,25.390625,-13.18359375,-6.34765625,-6.8359375
1508291755.7533264,9.765625,25.390625,-10.7421875,-3.41796875,-1.46484375
1508291755.7572327,-5.859375,25.87890625,-29.78515625,-23.4375,-16.11328125
1508291755.761139,-11.23046875,22.94921875,-38.57421875,-25.87890625,16.6015625
1508291755.765204,5.859375,20.5078125,-36.1328125,-12.6953125,-1.953125
1508291755.7691102,13.18359375,21.97265625,-34.1796875,-3.41796875,13.18359375
1508291755.7730165,2.44140625,29.296875,-42.48046875,-15.13671875,35.15625
1508291755.7769227,-4.8828125,33.203125,-41.9921875,-23.92578125,16.6015625
1508291755.780829,11.23046875,30.2734375,-26.3671875,-8.7890625,-2.44140625
1508291755.7847352,22.4609375,30.2734375,-22.94921875,0.0,-14.16015625
1508291755.7886415,6.8359375,30.76171875,-29.78515625,-7.8125,16.6015625
1508291755.7925477,-9.765625,26.3671875,-30.2734375,-25.87890625,-2.44140625
1508291755.796454,1.953125,27.83203125,-6.8359375,-6.8359375,4.39453125
1508291755.8003602,18.06640625,30.2734375,-5.859375,0.9765625,27.34375
1508291755.8042665,14.16015625,30.2734375,-16.11328125,-6.34765625,18.06640625
1508291755.8081727,2.44140625,30.76171875,-21.484375,-10.7421875,11.23046875
1508291755.8082333,4.8828125,29.296875,-30.2734375,-9.27734375,24.90234375
1508291755.8121395,8.7890625,27.83203125,-34.1796875,2.44140625,28.3203125
1508291755.8160458,7.8125,23.92578125,-39.0625,3.41796875,30.76171875
1508291755.819952,-5.859375,20.01953125,-39.55078125,-14.6484375,48.33984375
1508291755.8238583,-10.7421875,17.578125,-35.64453125,-11.23046875,20.01953125
1508291755.8277645,11.71875,17.578125,-34.1796875,13.18359375,0.48828125
1508291755.8316708,17.578125,16.11328125,-43.45703125,5.37109375,-6.8359375
1508291755.835577,3.90625,14.6484375,-40.52734375,-9.27734375,14.16015625
1508291755.8394833,-1.953125,19.53125,-35.64453125,-6.34765625,31.73828125
1508291755.8433895,11.23046875,24.4140625,-39.55078125,6.34765625,38.57421875
1508291755.8472958,15.13671875,29.78515625,-39.0625,5.859375,34.66796875
1508291755.851202,4.39453125,32.71484375,-41.015625,-5.37109375,28.80859375
1508291755.8682754,-9.765625,29.296875,-43.9453125,-12.20703125,33.69140625
1508291755.8721817,1.46484375,25.87890625,-41.50390625,5.859375,6.34765625
1508291755.876088,16.11328125,25.87890625,-30.2734375,11.71875,12.6953125
1508291755.8799942,12.20703125,25.87890625,-28.80859375,0.48828125,27.83203125
1508291755.8839004,0.48828125,26.85546875,-40.0390625,-0.9765625,46.875
1508291755.8878067,1.953125,26.3671875,-60.546875,4.39453125,38.57421875
1508291755.891713,16.11328125,22.4609375,-58.59375,9.27734375,2.9296875
1508291755.8956192,14.6484375,22.4609375,-39.55078125,8.7890625,13.18359375
1508291755.8995254,-2.9296875,22.94921875,-47.8515625,6.8359375,-2.9296875
1508291755.9034317,-3.90625,23.4375,-46.875,8.30078125,11.71875
1508291755.907338,20.5078125,24.4140625,-39.0625,27.34375,39.0625
1508291755.9112442,29.296875,25.390625,-42.96875,37.59765625,21.97265625
1508291755.9133086,16.6015625,27.34375,-52.24609375,26.3671875,30.76171875
1508291755.9172149,10.7421875,27.83203125,-52.24609375,20.99609375,57.12890625
1508291755.9211211,14.16015625,22.4609375,-48.33984375,30.2734375,46.875
1508291755.9250274,20.01953125,20.01953125,-45.8984375,27.83203125,44.43359375
1508291755.9289336,14.6484375,20.99609375,-44.43359375,17.578125,38.0859375
1508291755.9328399,-8.30078125,20.99609375,-52.734375,1.953125,73.2421875
1508291755.9367461,2.44140625,21.484375,-50.29296875,5.37109375,55.6640625
1508291755.9406524,25.87890625,25.390625,-44.921875,22.94921875,12.6953125
1508291755.9445586,21.97265625,33.203125,-52.734375,14.6484375,30.2734375
1508291755.9484649,5.859375,32.71484375,-57.6171875,-7.32421875,2.9296875
1508291755.9523711,8.7890625,32.71484375,-41.50390625,-2.44140625,-2.9296875
1508291755.9562774,18.5546875,34.1796875,-29.296875,24.4140625,13.671875
1508291755.9583404,13.18359375,29.296875,-33.203125,17.578125,15.625
1508291755.9622467,-2.9296875,24.4140625,-32.2265625,3.90625,24.4140625
1508291755.966153,-10.25390625,25.390625,-27.83203125,-5.859375,-5.37109375
1508291755.9700592,4.39453125,27.34375,-20.99609375,-2.44140625,22.94921875
1508291755.9739654,11.23046875,24.4140625,-20.01953125,13.18359375,15.625
1508291755.9778717,1.46484375,25.87890625,-18.06640625,15.13671875,-18.5546875
1508291755.981778,-11.23046875,30.2734375,-10.7421875,10.25390625,16.11328125
1508291755.9856842,3.41796875,31.25,-11.23046875,16.11328125,9.765625
1508291755.9895904,16.11328125,32.2265625,-22.4609375,13.671875,-16.6015625
1508291755.9934967,7.8125,33.69140625,-21.484375,8.7890625,-20.99609375
1508291755.997403,-4.8828125,33.203125,-10.25390625,4.39453125,-6.34765625
1508291756.0013092,-4.39453125,33.69140625,-18.06640625,11.23046875,-3.41796875
1508291756.0033703,11.71875,28.80859375,-22.94921875,17.578125,9.765625
1508291756.0072765,17.578125,26.3671875,-23.4375,23.92578125,9.765625
1508291756.0111828,-7.8125,32.2265625,-29.78515625,29.78515625,-0.48828125
1508291756.015089,-22.4609375,31.73828125,-29.78515625,24.4140625,0.0
1508291756.0189953,-0.48828125,27.34375,-22.94921875,35.64453125,-4.8828125
1508291756.0229015,9.765625,28.3203125,-25.390625,26.85546875,31.73828125
1508291756.0268078,-6.34765625,33.69140625,-27.83203125,5.859375,37.109375
1508291756.030714,-15.625,34.66796875,-28.80859375,-1.46484375,14.6484375
1508291756.0346203,2.9296875,33.203125,-35.64453125,8.7890625,-8.7890625
1508291756.0385265,12.6953125,30.2734375,-26.3671875,26.85546875,-14.16015625
1508291756.0424328,3.90625,25.87890625,-21.484375,31.73828125,32.2265625
1508291756.046339,-12.20703125,20.99609375,-30.2734375,16.6015625,37.59765625
1508291756.048402,-1.953125,22.94921875,-24.90234375,13.671875,59.08203125
1508291756.0523083,14.16015625,24.90234375,-20.01953125,19.53125,62.01171875
1508291756.0562146,14.6484375,22.94921875,-23.92578125,18.06640625,60.546875
1508291756.0601208,0.0,24.90234375,-32.71484375,9.765625,33.69140625
1508291756.064027,-1.46484375,24.90234375,-39.0625,14.6484375,4.8828125
1508291756.0679333,12.20703125,24.90234375,-41.50390625,24.90234375,7.8125
