timestamp,TP9,AF7,AF8,TP10,Right AUX
1508290493.5734463,-17.578125,48.33984375,40.0390625,1.953125,-62.01171875
1508290493.5773525,14.16015625,48.828125,41.50390625,38.57421875,-51.7578125
1508290493.5812588,7.32421875,49.8046875,38.57421875,62.5,-19.53125
1508290493.585165,-29.296875,48.828125,41.015625,21.484375,-33.69140625
1508290493.5890713,-33.69140625,50.29296875,41.50390625,-19.53125,-30.76171875
1508290493.5929775,-12.6953125,48.828125,35.64453125,39.55078125,-32.71484375
1508290493.5968838,-1.46484375,45.41015625,41.015625,56.640625,-52.734375
1508290493.60079,-4.8828125,45.8984375,43.45703125,29.78515625,-15.13671875
1508290493.6046963,-23.92578125,48.33984375,44.43359375,10.7421875,-5.37109375
1508290493.6086025,-13.671875,48.828125,48.828125,8.7890625,-55.17578125
1508290493.6125088,7.8125,45.41015625,39.0625,57.12890625,-25.390625
1508290493.616415,1.46484375,41.9921875,36.1328125,73.73046875,42.48046875
1508290493.6185946,-16.11328125,44.43359375,41.015625,1.953125,8.7890625
1508290493.622501,-24.90234375,44.921875,40.52734375,-10.25390625,-52.24609375
1508290493.6264071,-10.25390625,44.43359375,39.55078125,57.6171875,0.0
1508290493.6303134,6.8359375,47.36328125,35.15625,63.96484375,-12.6953125
1508290493.6342196,-3.90625,46.875,36.1328125,13.18359375,-35.15625
1508290493.638126,-19.53125,46.38671875,42.96875,-12.20703125,2.9296875
1508290493.6420321,-14.6484375,46.875,41.015625,49.8046875,11.71875
1508290493.6459384,9.765625,45.8984375,36.62109375,82.03125,38.0859375
1508290493.6498446,-0.48828125,46.875,42.48046875,33.203125,16.11328125
1508290493.653751,-34.66796875,47.36328125,45.41015625,-22.4609375,-28.3203125
1508290493.6576571,-21.484375,43.9453125,36.1328125,28.80859375,-1.46484375
1508290493.6615634,-6.34765625,40.52734375,39.0625,73.2421875,5.859375
1508290493.6633167,-3.90625,41.50390625,43.9453125,43.9453125,-21.484375
1508290493.667223,-1.46484375,45.41015625,44.43359375,4.8828125,-12.6953125
1508290493.6711292,-4.8828125,44.43359375,39.0625,29.78515625,5.859375
1508290493.6750355,-3.90625,43.45703125,32.2265625,67.87109375,3.41796875
1508290493.6789417,5.859375,49.8046875,38.0859375,63.4765625,-5.859375
1508290493.682848,-17.578125,52.734375,45.8984375,23.4375,4.8828125
1508290493.6867542,-24.90234375,52.24609375,52.24609375,13.671875,-18.5546875
1508290493.6906605,-3.41796875,52.24609375,50.29296875,62.01171875,4.39453125
1508290493.6945667,5.37109375,56.15234375,50.78125,38.0859375,-2.44140625
1508290493.698473,-13.671875,57.6171875,53.7109375,-7.8125,-41.50390625
1508290493.7023792,-27.34375,57.12890625,45.8984375,-14.6484375,-5.859375
1508290493.7062855,-11.71875,52.734375,45.41015625,36.1328125,4.39453125
1508290493.7083483,8.7890625,48.828125,50.78125,72.265625,-10.25390625
1508290493.7122545,3.41796875,54.19921875,50.78125,38.0859375,-8.7890625
1508290493.7161608,-26.85546875,54.6875,47.8515625,-9.765625,-27.83203125
1508290493.720067,-14.16015625,54.19921875,47.8515625,37.59765625,-34.66796875
1508290493.7239733,9.765625,52.734375,50.78125,69.82421875,-8.30078125
1508290493.7278795,-7.32421875,51.26953125,50.78125,43.45703125,-9.765625
1508290493.7317858,-25.390625,52.734375,49.31640625,-3.90625,3.41796875
1508290493.735692,-20.5078125,50.29296875,49.8046875,-6.8359375,-9.765625
1508290493.7395983,8.30078125,44.43359375,48.828125,31.73828125,-10.7421875
1508290493.7435045,6.8359375,41.50390625,41.015625,43.9453125,21.484375
1508290493.7474108,-27.83203125,48.33984375,41.50390625,20.5078125,16.6015625
1508290493.751317,-18.5546875,52.24609375,44.921875,0.0,-34.66796875
1508290493.7533805,3.90625,49.8046875,42.48046875,46.875,-43.45703125
1508290493.7572868,-8.30078125,48.828125,32.71484375,59.5703125,-6.8359375
1508290493.761193,-23.4375,48.828125,32.71484375,29.78515625,2.9296875
1508290493.7650993,-20.5078125,48.33984375,41.9921875,-10.25390625,29.296875
1508290493.7690055,3.90625,49.8046875,40.52734375,28.80859375,46.875
1508290493.7729118,8.7890625,49.8046875,39.55078125,73.2421875,14.6484375
1508290493.776818,-6.8359375,46.38671875,42.96875,38.57421875,10.7421875
1508290493.7807243,-19.53125,48.828125,50.29296875,-26.3671875,5.37109375
1508290493.7846305,-19.53125,51.26953125,44.43359375,-4.8828125,11.71875
1508290493.7885368,-6.8359375,48.828125,34.1796875,69.82421875,41.9921875
1508290493.792443,7.8125,46.38671875,35.15625,60.05859375,2.44140625
1508290493.7963493,-24.90234375,41.50390625,39.0625,-7.8125,-1.46484375
1508290493.8134236,-42.96875,43.9453125,42.48046875,-8.7890625,-23.92578125
1508290493.81733,-6.8359375,47.8515625,42.48046875,56.640625,-19.53125
1508290493.8212361,3.41796875,48.33984375,41.9921875,57.6171875,9.765625
1508290493.8251424,-19.04296875,49.31640625,40.0390625,-0.48828125,6.8359375
1508290493.8290486,-39.0625,48.33984375,38.0859375,-20.5078125,-5.37109375
1508290493.832955,-18.5546875,51.26953125,34.66796875,28.3203125,-17.578125
1508290493.8368611,4.8828125,51.26953125,36.1328125,47.8515625,-28.3203125
1508290493.8407674,-10.7421875,49.31640625,43.9453125,14.6484375,-53.22265625
1508290493.8446736,-29.296875,46.38671875,38.0859375,-30.76171875,-41.9921875
1508290493.84858,-17.578125,43.45703125,28.3203125,29.78515625,-16.11328125
1508290493.8524861,-11.23046875,38.57421875,33.69140625,66.40625,-18.06640625
1508290493.8563924,-32.71484375,33.69140625,41.015625,12.6953125,3.41796875
1508290493.8434455,-37.109375,35.64453125,42.48046875,-21.484375,-12.20703125
1508290493.8473518,-0.9765625,41.015625,38.0859375,9.765625,-22.4609375
1508290493.851258,-11.23046875,40.0390625,36.62109375,42.48046875,-12.20703125
1508290493.8551643,-44.43359375,38.57421875,38.0859375,43.9453125,-3.90625
1508290493.8590705,-42.96875,40.52734375,37.59765625,3.41796875,-8.7890625
1508290493.8629768,-34.66796875,40.52734375,41.50390625,-5.37109375,-31.73828125
1508290493.866883,-14.6484375,39.0625,41.015625,48.828125,29.78515625
1508290493.8707893,-16.6015625,36.1328125,39.0625,41.015625,48.33984375
1508290493.8746955,-34.66796875,34.66796875,33.69140625,0.9765625,9.27734375
1508290493.8786018,-31.73828125,35.15625,34.1796875,-6.8359375,16.11328125
1508290493.882508,-5.37109375,33.203125,41.9921875,24.90234375,-7.32421875
1508290493.8864143,17.08984375,31.25,40.52734375,43.9453125,-3.90625
1508290493.8884766,6.34765625,31.25,35.64453125,31.73828125,23.92578125
1508290493.8923829,-36.62109375,33.203125,33.69140625,-19.53125,8.7890625
1508290493.896289,-43.45703125,33.203125,40.52734375,13.671875,-2.44140625
1508290493.9001954,-12.6953125,33.69140625,43.45703125,67.3828125,19.04296875
1508290493.9041016,-19.53125,34.66796875,36.1328125,48.33984375,44.43359375
1508290493.9080079,-32.71484375,34.1796875,41.015625,-12.20703125,2.44140625
1508290493.911914,-15.13671875,37.59765625,45.8984375,-16.11328125,-38.57421875
1508290493.9158204,-1.953125,33.203125,37.59765625,51.7578125,-4.39453125
1508290493.9197266,-0.9765625,28.80859375,32.2265625,48.828125,6.8359375
1508290493.9236329,-23.4375,29.296875,35.64453125,-18.5546875,-2.9296875
1508290493.927539,-38.0859375,30.2734375,36.1328125,-17.578125,-12.20703125
1508290493.9314454,-18.5546875,31.25,33.69140625,41.50390625,-15.625
1508290493.9482234,-5.37109375,30.76171875,38.0859375,43.9453125,-32.2265625
1508290493.9521296,-9.765625,31.25,38.0859375,1.46484375,-46.875
1508290493.9560359,-27.34375,32.2265625,33.69140625,-19.53125,-48.828125
1508290493.959942,-28.3203125,31.73828125,30.76171875,22.4609375,-18.5546875
1508290493.9638484,-24.4140625,28.80859375,29.296875,74.21875,12.6953125
1508290493.9677546,-25.390625,28.80859375,33.203125,27.83203125,-7.32421875
1508290493.9716609,-25.87890625,34.1796875,35.64453125,-42.96875,-13.671875
1508290493.975567,-22.94921875,32.71484375,31.73828125,2.44140625,8.30078125
1508290493.9794734,-14.6484375,27.83203125,31.25,41.9921875,24.4140625
1508290493.9833796,-12.20703125,30.76171875,36.62109375,7.8125,3.41796875
1508290493.9872859,-16.6015625,35.64453125,39.55078125,-43.45703125,-35.15625
1508290493.991192,-20.5078125,34.66796875,36.1328125,-14.6484375,-49.8046875
1508290493.9932756,-16.6015625,31.73828125,33.69140625,41.50390625,-10.7421875
1508290493.997182,-11.23046875,31.73828125,35.15625,55.6640625,3.41796875
1508290494.0010881,-39.55078125,33.203125,31.25,4.8828125,-29.296875
1508290494.0049944,-48.828125,35.64453125,32.2265625,-35.64453125,-22.94921875
1508290494.0089006,-19.53125,38.0859375,43.9453125,34.1796875,4.8828125
1508290494.012807,-7.8125,36.62109375,43.9453125,60.05859375,-9.765625
1508290494.0167131,-10.25390625,35.64453125,36.1328125,14.16015625,-3.90625
1508290494.0206194,-16.6015625,39.0625,35.64453125,-8.7890625,35.15625
1508290494.0245256,-26.85546875,37.109375,39.0625,8.7890625,-7.8125
1508290494.028432,-42.96875,29.78515625,36.62109375,6.34765625,-35.64453125
1508290494.0323381,-51.26953125,30.2734375,35.64453125,10.7421875,25.390625
1508290494.0362444,-70.80078125,32.2265625,43.45703125,-32.2265625,-19.53125
1508290494.0382886,-79.1015625,31.73828125,41.015625,-33.69140625,-19.04296875
1508290494.0421948,-57.12890625,33.203125,37.59765625,12.20703125,-23.92578125
1508290494.046101,-52.734375,28.3203125,35.64453125,5.859375,-47.8515625
1508290494.0500073,-71.77734375,25.390625,34.1796875,-42.48046875,-28.3203125
1508290494.0539136,-72.75390625,26.85546875,34.1796875,-43.9453125,-40.0390625
1508290494.0578198,-43.9453125,24.90234375,36.1328125,24.90234375,-16.11328125
1508290494.061726,-25.87890625,23.4375,34.66796875,22.94921875,-2.9296875
1508290494.0656323,-36.1328125,24.90234375,31.73828125,-33.203125,2.44140625
1508290494.0695386,-51.7578125,31.73828125,35.15625,-49.8046875,-31.73828125
1508290494.0734448,-28.3203125,40.0390625,29.78515625,-12.20703125,-37.59765625
1508290494.077351,-20.01953125,39.55078125,23.4375,33.69140625,14.16015625
1508290494.0812573,-26.3671875,34.66796875,30.2734375,10.7421875,-30.2734375
1508290494.0983295,-38.0859375,33.69140625,33.203125,-38.57421875,-63.96484375
1508290494.1022358,-41.015625,32.71484375,27.83203125,10.7421875,1.953125
1508290494.106142,-23.92578125,27.83203125,30.76171875,62.98828125,33.69140625
1508290494.1100483,-31.73828125,26.85546875,34.66796875,22.4609375,4.8828125
1508290494.1139545,-41.015625,29.78515625,35.64453125,-25.87890625,-51.26953125
1508290494.1178608,-30.2734375,31.25,35.64453125,-8.7890625,-37.109375
1508290494.121767,-18.5546875,32.2265625,34.1796875,39.0625,21.484375
1508290494.1256733,-16.11328125,32.71484375,35.64453125,47.36328125,14.6484375
1508290494.1295795,-31.25,33.69140625,39.0625,-6.8359375,0.0
1508290494.1334858,-36.62109375,32.2265625,35.15625,-1.953125,33.203125
1508290494.137392,-1.46484375,31.73828125,31.25,64.453125,57.12890625
1508290494.1412983,-2.9296875,32.71484375,35.15625,40.0390625,19.53125
1508290494.1283529,-44.43359375,27.83203125,35.64453125,-24.4140625,-9.27734375
1508290494.1322591,-62.5,26.3671875,32.2265625,-36.1328125,-8.30078125
1508290494.1361654,-47.8515625,25.87890625,38.57421875,18.06640625,-17.08984375
1508290494.1400716,-22.4609375,24.90234375,42.48046875,44.921875,-14.6484375
1508290494.1439779,-10.7421875,24.90234375,40.52734375,0.9765625,-23.92578125
1508290494.1478841,-35.64453125,28.80859375,40.52734375,-35.15625,-5.37109375
1508290494.1517904,-44.43359375,29.78515625,39.0625,7.32421875,21.97265625
1508290494.1556966,-16.11328125,27.34375,37.109375,37.109375,35.64453125
1508290494.1596029,-18.06640625,29.78515625,34.66796875,26.85546875,12.6953125
1508290494.1635091,-44.921875,31.73828125,34.1796875,-6.34765625,-14.16015625
1508290494.1674154,-39.0625,33.203125,36.62109375,7.32421875,35.64453125
1508290494.1713216,-16.6015625,31.25,38.0859375,19.53125,-10.25390625
1508290494.173383,-14.16015625,30.2734375,35.15625,2.44140625,-66.89453125
1508290494.1772892,-21.97265625,31.73828125,30.76171875,-3.90625,-22.4609375
1508290494.1811955,-37.59765625,38.0859375,34.1796875,-1.46484375,-12.6953125
1508290494.1851017,-26.85546875,43.9453125,35.64453125,33.203125,15.625
1508290494.189008,-16.11328125,39.0625,31.25,48.828125,41.50390625
1508290494.1929142,-23.92578125,36.1328125,32.2265625,5.37109375,-1.953125
1508290494.1968205,-27.34375,39.0625,37.109375,-30.2734375,-8.7890625
1508290494.2007267,-24.90234375,38.57421875,39.0625,19.53125,4.8828125
1508290494.204633,-3.41796875,35.64453125,32.71484375,57.12890625,6.8359375
1508290494.2085392,-6.8359375,35.64453125,28.3203125,25.390625,-26.85546875
1508290494.2124455,-26.85546875,33.69140625,29.296875,-22.94921875,-28.3203125
1508290494.2163517,-14.16015625,30.76171875,31.73828125,24.4140625,5.37109375
1508290494.2339277,-20.5078125,32.71484375,31.25,64.453125,1.46484375
1508290494.237834,-20.5078125,34.1796875,30.2734375,54.19921875,0.9765625
1508290494.2417402,-11.71875,34.1796875,34.1796875,2.44140625,0.0
1508290494.2456465,-7.8125,34.66796875,35.64453125,2.44140625,-1.953125
1508290494.2495527,11.23046875,34.1796875,35.15625,69.82421875,5.859375
1508290494.253459,4.8828125,32.71484375,35.64453125,77.1484375,15.625
1508290494.2573652,-9.765625,32.2265625,41.9921875,17.578125,-7.32421875
1508290494.2612715,-20.5078125,25.87890625,31.73828125,-3.90625,4.39453125
1508290494.2651777,-14.16015625,22.94921875,20.99609375,53.7109375,2.9296875
1508290494.269084,-8.30078125,27.83203125,32.2265625,64.453125,1.46484375
1508290494.2729902,-17.578125,27.34375,36.62109375,20.99609375,-4.8828125
1508290494.2768965,-11.71875,30.2734375,39.0625,3.90625,-24.90234375
1508290494.263447,-1.46484375,29.78515625,37.59765625,51.26953125,12.6953125
1508290494.2673533,3.90625,30.2734375,34.66796875,67.3828125,15.625
1508290494.2712595,-5.37109375,31.73828125,33.69140625,42.48046875,35.15625
1508290494.2751658,-28.3203125,32.2265625,36.1328125,2.9296875,28.80859375
1508290494.279072,-3.41796875,33.69140625,41.9921875,38.0859375,-18.06640625
1508290494.2829783,29.296875,28.80859375,44.43359375,80.078125,-16.11328125
1508290494.2868845,0.48828125,26.3671875,41.015625,53.22265625,4.8828125
1508290494.2907908,-22.94921875,26.85546875,36.62109375,8.30078125,-13.18359375
1508290494.294697,-13.671875,25.390625,33.69140625,0.48828125,-22.4609375
1508290494.2986033,-6.8359375,26.3671875,34.1796875,51.26953125,-6.8359375
1508290494.3025095,-9.765625,26.85546875,39.0625,37.59765625,-25.390625
1508290494.3064158,-28.80859375,21.97265625,36.62109375,-12.20703125,-17.08984375
1508290494.3234897,-40.0390625,20.99609375,34.1796875,8.30078125,-1.46484375
1508290494.327396,-13.18359375,20.01953125,37.109375,52.734375,-16.6015625
1508290494.3313022,6.34765625,22.94921875,36.1328125,64.94140625,10.25390625
1508290494.3352084,-6.34765625,23.92578125,30.2734375,39.55078125,48.33984375
1508290494.3391147,-20.99609375,25.87890625,30.76171875,-27.83203125,13.671875
1508290494.343021,-37.59765625,26.85546875,29.78515625,-8.7890625,-20.5078125
1508290494.3469272,-22.4609375,24.90234375,25.390625,33.69140625,12.6953125
1508290494.3508334,-10.25390625,23.4375,19.53125,17.08984375,51.26953125
1508290494.3547397,-26.85546875,20.01953125,22.94921875,-9.27734375,-4.39453125
1508290494.358646,-26.3671875,23.4375,33.203125,-13.671875,-38.57421875
1508290494.3625522,-7.32421875,23.92578125,28.80859375,23.4375,-3.90625
1508290494.3664584,-6.34765625,22.94921875,20.01953125,48.33984375,26.3671875
1508290494.369023,-30.76171875,24.4140625,22.94921875,6.34765625,42.48046875
1508290494.3729293,-27.34375,21.97265625,25.390625,5.37109375,46.38671875
1508290494.3768356,12.6953125,26.3671875,25.390625,62.01171875,46.875
1508290494.3807418,5.859375,23.92578125,26.3671875,69.82421875,67.3828125
1508290494.384648,-13.18359375,24.4140625,30.76171875,35.64453125,30.76171875
1508290494.3885543,-1.46484375,33.69140625,35.15625,-2.9296875,-18.06640625
1508290494.3924606,8.30078125,36.1328125,29.78515625,25.87890625,4.39453125
1508290494.3963668,3.90625,35.15625,27.83203125,59.08203125,35.15625
1508290494.400273,1.953125,32.71484375,32.2265625,19.53125,12.6953125
1508290494.4041793,-14.16015625,31.73828125,31.25,-26.85546875,-13.18359375
1508290494.4080856,-11.71875,33.69140625,24.4140625,25.87890625,18.5546875
1508290494.4119918,13.18359375,32.71484375,23.4375,81.0546875,34.1796875
1508290494.4135559,2.44140625,34.66796875,28.80859375,64.453125,25.87890625
1508290494.417462,-15.625,36.62109375,28.80859375,12.20703125,9.765625
1508290494.4213684,-0.9765625,37.109375,24.90234375,18.06640625,12.6953125
1508290494.4252746,12.6953125,36.1328125,31.25,65.91796875,1.953125
1508290494.4291809,4.8828125,35.64453125,37.109375,59.08203125,-2.9296875
1508290494.433087,-7.8125,41.50390625,41.50390625,18.06640625,-36.1328125
1508290494.4369934,-18.5546875,39.0625,40.52734375,12.20703125,-33.203125
1508290494.4408996,-8.7890625,31.25,39.0625,70.3125,12.20703125
1508290494.4448059,2.44140625,31.25,41.50390625,74.21875,12.6953125
1508290494.448712,0.0,39.55078125,40.52734375,18.06640625,-36.1328125
1508290494.4526184,-12.6953125,41.015625,31.73828125,7.8125,-13.671875
1508290494.4565246,-13.671875,37.109375,28.3203125,53.7109375,32.71484375
1508290494.458586,-5.859375,40.52734375,31.25,75.68359375,35.64453125
1508290494.4624922,-6.8359375,42.48046875,33.203125,37.59765625,40.0390625
1508290494.4663985,-17.08984375,43.45703125,35.15625,-3.90625,14.6484375
1508290494.4703047,-17.578125,44.43359375,35.64453125,31.25,22.94921875
1508290494.474211,-2.44140625,47.36328125,31.25,62.01171875,26.85546875
1508290494.4781172,0.48828125,50.29296875,31.25,50.29296875,8.7890625
1508290494.4820235,-22.4609375,50.29296875,30.2734375,10.7421875,18.06640625
1508290494.4859297,-14.6484375,49.31640625,38.0859375,9.27734375,-21.484375
1508290494.489836,19.04296875,50.29296875,42.48046875,38.0859375,-27.83203125
1508290494.4937422,18.06640625,52.24609375,32.2265625,48.828125,13.18359375
1508290494.4976485,-8.30078125,46.38671875,33.69140625,15.625,3.90625
1508290494.5015547,-21.97265625,43.9453125,32.71484375,-6.34765625,-10.7421875
1508290494.503618,-19.04296875,47.8515625,28.80859375,37.109375,-7.8125
1508290494.5075243,1.46484375,50.29296875,29.78515625,52.734375,-22.94921875
1508290494.5114305,-8.30078125,49.31640625,31.25,30.76171875,-29.78515625
1508290494.5153368,-48.828125,42.48046875,37.109375,-14.6484375,27.34375
1508290494.519243,-29.78515625,35.15625,36.62109375,11.23046875,54.19921875
1508290494.5231493,-9.765625,35.15625,38.57421875,55.17578125,35.64453125
1508290494.5270555,-28.80859375,34.66796875,39.55078125,27.34375,42.96875
1508290494.5309618,-31.25,38.57421875,40.52734375,-17.08984375,10.7421875
1508290494.534868,1.46484375,42.48046875,38.0859375,18.06640625,5.859375
1508290494.5387743,13.18359375,37.59765625,32.2265625,62.5,32.2265625
1508290494.5426805,-15.13671875,35.64453125,36.1328125,44.43359375,-6.34765625
1508290494.5465868,-37.59765625,36.62109375,34.66796875,4.39453125,-19.04296875
1508290494.548149,-24.4140625,37.59765625,31.25,5.37109375,0.48828125
1508290494.5520554,-13.671875,37.59765625,31.73828125,57.12890625,14.6484375
1508290494.5559616,-11.23046875,41.015625,34.66796875,48.33984375,-1.953125
1508290494.5598679,-18.5546875,39.55078125,39.0625,-25.87890625,16.6015625
1508290494.563774,-35.15625,28.80859375,38.0859375,-30.76171875,15.625
1508290494.5676804,-6.8359375,19.04296875,35.15625,39.55078125,-23.92578125
1508290494.5715866,21.484375,14.6484375,36.62109375,75.1953125,-21.97265625
1508290494.5754929,-31.73828125,15.13671875,36.62109375,3.90625,3.41796875
1508290494.579399,-72.265625,11.71875,31.73828125,-48.828125,-6.8359375
1508290494.5833054,-21.97265625,10.7421875,31.73828125,28.80859375,-15.13671875
1508290494.5872116,-2.44140625,12.20703125,33.203125,55.17578125,29.296875
1508290494.5911179,-25.87890625,8.7890625,30.76171875,33.69140625,28.3203125
1508290494.5931811,-33.69140625,10.7421875,31.25,-8.7890625,-0.9765625
1508290494.5970874,-22.94921875,15.13671875,38.57421875,5.859375,8.30078125
1508290494.6009936,-6.8359375,15.13671875,41.9921875,58.10546875,9.27734375
1508290494.6049,-0.9765625,16.11328125,41.015625,41.50390625,-29.296875
1508290494.6088061,-3.41796875,17.08984375,40.0390625,-8.7890625,-46.875
1508290494.6127124,-4.39453125,20.5078125,39.55078125,5.859375,-36.1328125
1508290494.6166186,2.9296875,22.94921875,38.57421875,63.4765625,7.8125
1508290494.620525,8.7890625,16.6015625,32.2265625,73.73046875,32.71484375
1508290494.6244311,-2.9296875,16.11328125,28.3203125,28.3203125,7.8125
1508290494.6283374,-13.671875,18.06640625,26.85546875,-13.18359375,4.8828125
1508290494.6322436,-8.7890625,14.6484375,19.04296875,31.73828125,15.625
1508290494.63615,3.41796875,16.6015625,26.3671875,64.453125,-5.859375
1508290494.6387136,9.27734375,19.04296875,30.2734375,28.80859375,37.109375
1508290494.6426198,-10.7421875,18.5546875,31.25,-13.18359375,24.90234375
1508290494.646526,2.44140625,20.5078125,37.109375,29.296875,-14.6484375
1508290494.6504323,27.83203125,17.08984375,30.2734375,66.89453125,-28.3203125
1508290494.6543386,8.30078125,16.6015625,30.76171875,51.26953125,-9.765625
1508290494.6582448,-2.9296875,22.4609375,38.0859375,3.41796875,-27.34375
1508290494.662151,0.48828125,24.4140625,38.57421875,7.8125,-63.4765625
1508290494.6660573,1.953125,21.97265625,33.203125,47.8515625,-19.53125
1508290494.6699636,5.37109375,22.4609375,41.015625,47.36328125,-22.4609375
1508290494.6738698,-6.34765625,28.3203125,45.41015625,2.9296875,-28.80859375
1508290494.677776,-10.25390625,28.80859375,36.62109375,-13.671875,16.6015625
1508290494.6816823,15.625,29.296875,34.66796875,50.29296875,27.34375
1508290494.7133074,30.2734375,27.34375,39.55078125,85.9375,13.671875
1508290494.7172136,5.859375,23.4375,41.9921875,5.37109375,3.41796875
1508290494.7211199,-12.6953125,23.4375,42.48046875,-40.52734375,7.32421875
1508290494.7250261,-1.46484375,23.4375,39.0625,36.1328125,46.38671875
1508290494.7289324,10.7421875,21.484375,33.203125,64.94140625,55.6640625
1508290494.7328386,12.6953125,20.01953125,33.69140625,18.5546875,2.44140625
1508290494.7367449,-4.8828125,26.3671875,29.78515625,-16.11328125,12.6953125
1508290494.7406511,8.7890625,27.34375,26.85546875,39.0625,31.25
1508290494.7445574,15.13671875,15.13671875,35.15625,70.80078125,13.671875
1508290494.7484636,4.39453125,13.671875,39.55078125,29.296875,15.625
1508290494.7523699,-15.13671875,18.06640625,39.55078125,-29.78515625,20.01953125
1508290494.7562761,-28.3203125,14.16015625,40.0390625,-13.671875,12.20703125
1508290494.7433493,3.90625,10.7421875,37.109375,42.96875,16.11328125
1508290494.7472556,5.859375,11.71875,36.62109375,33.203125,19.53125
1508290494.7511618,-25.390625,13.671875,39.0625,-22.94921875,-13.671875
1508290494.755068,-26.3671875,14.6484375,41.50390625,-30.2734375,8.7890625
1508290494.7589743,-0.9765625,11.71875,39.0625,28.80859375,19.53125
1508290494.7628806,-2.44140625,14.16015625,31.73828125,45.8984375,4.39453125
1508290494.7667868,-23.92578125,17.578125,41.015625,-10.7421875,4.39453125
1508290494.770693,-30.76171875,20.99609375,45.8984375,-32.2265625,-42.48046875
1508290494.7745993,-12.20703125,20.01953125,45.8984375,25.390625,-33.203125
1508290494.7785056,-5.37109375,15.625,42.96875,36.1328125,3.90625
1508290494.7824118,-25.87890625,17.578125,35.15625,2.9296875,-24.4140625
1508290494.786318,-47.36328125,19.53125,36.62109375,-34.66796875,1.46484375
1508290494.7888627,-52.24609375,21.97265625,41.50390625,-3.90625,-36.62109375
1508290494.792769,-39.55078125,27.34375,41.50390625,18.06640625,-83.0078125
1508290494.7966752,-29.78515625,25.390625,31.25,4.8828125,-5.37109375
1508290494.8005815,-41.50390625,20.5078125,30.2734375,-27.34375,-20.5078125
1508290494.8044877,-52.24609375,18.5546875,33.203125,-37.59765625,-50.29296875
1508290494.808394,-55.6640625,13.671875,33.69140625,13.671875,-50.78125
1508290494.8123002,-54.19921875,14.16015625,35.15625,19.04296875,-14.6484375
1508290494.8162065,-58.10546875,19.04296875,39.0625,-34.1796875,8.7890625
1508290494.8201127,-58.10546875,19.53125,43.45703125,-53.22265625,-35.15625
1508290494.824019,-66.40625,18.06640625,37.59765625,11.23046875,-25.390625
1508290494.8279252,-73.2421875,17.578125,30.76171875,37.59765625,7.8125
1508290494.8318315,-70.80078125,16.6015625,36.1328125,-20.5078125,-14.16015625
1508290494.833408,-83.49609375,18.5546875,40.52734375,-39.55078125,-41.015625
1508290494.8373144,-58.59375,20.5078125,37.59765625,34.1796875,-5.37109375
1508290494.8412206,-33.69140625,19.53125,35.64453125,47.8515625,0.9765625
1508290494.8451269,-51.26953125,18.06640625,38.57421875,6.8359375,-41.015625
1508290494.849033,-54.19921875,21.97265625,40.52734375,-28.3203125,-16.6015625
1508290494.8529394,-39.55078125,27.83203125,41.015625,-1.46484375,31.73828125
1508290494.8568456,-41.9921875,23.92578125,39.55078125,41.50390625,33.69140625
1508290494.8607519,-47.36328125,19.04296875,42.96875,35.15625,1.953125
1508290494.864658,-72.75390625,20.99609375,48.33984375,-13.671875,-58.10546875
1508290494.8685644,-72.75390625,20.01953125,41.015625,-27.34375,-79.1015625
1508290494.8724706,-41.50390625,16.6015625,29.78515625,41.50390625,-23.92578125
1508290494.8763769,-32.2265625,16.11328125,30.76171875,64.453125,21.97265625
1508290494.8784268,-44.43359375,18.5546875,40.52734375,0.48828125,-8.7890625
1508290494.882333,-52.24609375,16.6015625,36.1328125,-14.6484375,-26.85546875
1508290494.8862393,-36.62109375,14.6484375,27.34375,37.59765625,-10.25390625
1508290494.8901455,-27.83203125,18.06640625,27.34375,45.8984375,-15.13671875
1508290494.8940518,-41.9921875,19.53125,28.3203125,16.6015625,-0.48828125
1508290494.897958,-43.9453125,20.5078125,32.2265625,-26.85546875,-12.20703125
1508290494.9018643,-41.015625,21.484375,28.80859375,-7.32421875,20.99609375
1508290494.9057705,-35.64453125,19.04296875,29.78515625,28.80859375,12.20703125
1508290494.9096768,-40.0390625,18.5546875,31.73828125,7.8125,-11.23046875
1508290494.913583,-59.08203125,20.99609375,26.3671875,-19.04296875,11.71875
1508290494.9174893,-51.26953125,21.484375,27.34375,10.25390625,-6.34765625
1508290494.9213955,-31.73828125,21.484375,29.78515625,48.828125,30.2734375
1508290494.923477,-22.4609375,22.4609375,28.80859375,38.0859375,43.9453125
1508290494.9273832,-33.203125,23.92578125,31.25,6.34765625,-28.3203125
1508290494.9312894,-31.25,26.3671875,35.64453125,-14.6484375,-50.29296875
1508290494.9351957,-13.671875,28.80859375,35.15625,29.78515625,-21.484375
1508290494.939102,-29.78515625,28.80859375,33.69140625,41.9921875,-20.5078125
1508290494.9430082,-56.640625,26.3671875,38.0859375,-6.8359375,-18.5546875
1508290494.9469144,-54.19921875,25.87890625,43.45703125,-25.390625,-21.484375
1508290494.9508207,-26.3671875,27.83203125,42.96875,12.6953125,-59.5703125
1508290494.954727,-41.50390625,27.34375,34.1796875,49.8046875,-24.90234375
1508290494.9586332,-80.56640625,22.4609375,35.64453125,21.97265625,1.46484375
1508290494.9625394,-96.19140625,22.4609375,42.48046875,-36.62109375,-43.45703125
1508290494.9664457,-104.98046875,28.3203125,44.921875,-28.3203125,-22.94921875
1508290494.96849,-105.95703125,31.73828125,42.96875,-11.23046875,-40.52734375
1508290494.9723961,-100.09765625,31.73828125,36.62109375,-11.71875,-64.453125
1508290494.9763024,-98.6328125,31.25,40.0390625,-59.08203125,-65.91796875
1508290494.9802086,-94.23828125,30.2734375,42.96875,-42.96875,-65.91796875
1508290494.984115,-71.77734375,27.83203125,43.9453125,35.15625,-48.828125
1508290494.9880211,-61.5234375,26.3671875,41.50390625,20.99609375,-25.390625
1508290494.9919274,-73.73046875,27.83203125,44.43359375,-41.50390625,-37.109375
1508290494.9958336,-90.33203125,30.2734375,47.36328125,-59.5703125,-80.56640625
1508290494.99974,-78.61328125,31.25,43.45703125,14.16015625,-67.3828125
1508290495.0036461,-61.03515625,30.76171875,46.875,41.50390625,-38.57421875
1508290495.0075524,-79.1015625,26.85546875,43.9453125,-16.6015625,-48.828125
1508290495.0114586,-91.796875,26.3671875,37.59765625,-51.26953125,-25.390625
1508290495.0135407,-79.1015625,32.71484375,38.0859375,-10.25390625,12.20703125
1508290495.017447,-78.125,33.203125,49.8046875,11.23046875,-7.32421875
1508290495.0213532,-102.5390625,26.85546875,53.7109375,-26.3671875,-7.32421875
1508290495.0252595,-120.60546875,23.92578125,52.734375,-76.66015625,-51.26953125
1508290495.0291657,-100.5859375,24.90234375,53.22265625,-46.38671875,-38.57421875
1508290495.033072,-80.56640625,28.80859375,54.19921875,-7.8125,-45.8984375
1508290495.0369782,-104.4921875,28.3203125,60.546875,-50.29296875,-80.56640625
1508290495.0408845,-131.34765625,22.94921875,61.5234375,-86.9140625,-39.0625
1508290495.0447907,-121.58203125,21.97265625,63.96484375,-45.8984375,-47.8515625
1508290495.048697,-85.9375,24.90234375,64.94140625,8.30078125,-54.6875
1508290495.0526032,-79.1015625,24.90234375,61.5234375,-16.6015625,-49.31640625
1508290495.0565095,-113.28125,23.92578125,56.15234375,-68.84765625,-54.6875
1508290495.0735655,-127.9296875,23.92578125,58.10546875,-65.91796875,-40.0390625
1508290495.0774717,-91.30859375,25.390625,59.08203125,-2.9296875,-29.296875
1508290495.081378,-64.94140625,24.4140625,52.734375,11.23046875,-25.390625
1508290495.0852842,-78.61328125,20.5078125,51.26953125,-28.80859375,-22.94921875
1508290495.0891905,-85.44921875,20.01953125,50.29296875,-38.0859375,-39.55078125
1508290495.0930967,-56.15234375,21.484375,46.38671875,18.06640625,-14.16015625
1508290495.097003,-31.73828125,24.4140625,47.36328125,52.734375,21.97265625
1508290495.1009092,-22.4609375,26.3671875,40.52734375,42.48046875,8.7890625
1508290495.1048155,-12.6953125,27.34375,37.109375,9.27734375,-77.1484375
1508290495.1087217,-12.20703125,27.83203125,46.38671875,20.99609375,-114.2578125
1508290495.112628,-8.7890625,25.87890625,46.38671875,64.453125,-51.26953125
1508290495.1165342,-4.8828125,23.4375,40.0390625,87.890625,18.5546875
1508290495.1185977,-18.5546875,23.92578125,40.52734375,43.9453125,8.30078125
1508290495.122504,-13.18359375,24.4140625,42.48046875,24.90234375,-42.48046875
1508290495.1264102,20.01953125,22.4609375,41.50390625,95.21484375,-80.56640625
1508290495.1303165,29.78515625,18.06640625,39.55078125,112.3046875,-37.59765625
1508290495.1342227,0.9765625,17.08984375,41.50390625,53.22265625,-14.6484375
1508290495.138129,-9.765625,19.53125,45.41015625,41.015625,-51.7578125
1508290495.1420352,15.13671875,22.4609375,39.55078125,90.8203125,-62.5
1508290495.1459415,30.2734375,26.3671875,35.15625,92.28515625,-26.85546875
1508290495.1498477,18.5546875,26.3671875,35.15625,63.4765625,-12.20703125
1508290495.153754,12.20703125,27.34375,36.62109375,23.4375,-66.89453125
1508290495.1576602,20.99609375,27.83203125,32.71484375,71.77734375,-78.61328125
1508290495.1615665,31.25,25.390625,33.203125,122.0703125,-41.50390625
1508290495.163129,33.69140625,26.3671875,41.50390625,75.1953125,-64.453125
1508290495.1670353,17.578125,28.80859375,43.45703125,36.62109375,-67.3828125
1508290495.1709416,9.27734375,28.3203125,41.50390625,67.87109375,-34.66796875
1508290495.1748478,36.1328125,27.83203125,40.0390625,105.46875,-29.296875
1508290495.178754,38.0859375,29.296875,39.0625,82.03125,-22.94921875
1508290495.1826603,5.859375,32.71484375,42.96875,32.2265625,-66.40625
1508290495.1865666,11.71875,35.15625,44.921875,39.0625,-70.80078125
1508290495.1904728,30.2734375,33.203125,38.57421875,105.46875,-4.39453125
1508290495.194379,33.203125,31.73828125,38.57421875,94.23828125,-27.34375
1508290495.1982853,17.08984375,33.203125,41.015625,25.390625,-43.45703125
1508290495.2021916,-0.9765625,35.64453125,40.52734375,36.62109375,-10.25390625
1508290495.2060978,8.30078125,33.69140625,40.52734375,93.26171875,-39.55078125
1508290495.2081602,14.16015625,34.1796875,40.52734375,91.30859375,-40.0390625
1508290495.2120664,9.27734375,35.15625,41.50390625,50.78125,-36.62109375
1508290495.2159727,-2.9296875,30.2734375,42.96875,30.76171875,-41.015625
1508290495.219879,3.90625,27.83203125,41.015625,60.546875,-15.625
1508290495.2237852,33.203125,31.73828125,35.15625,87.40234375,-36.62109375
1508290495.2276914,15.13671875,35.15625,38.57421875,71.77734375,-34.1796875
1508290495.2315977,-19.04296875,37.59765625,41.9921875,16.11328125,-26.85546875
1508290495.235504,-9.27734375,36.1328125,44.43359375,38.57421875,-55.17578125
1508290495.2394102,19.53125,34.66796875,49.31640625,69.82421875,-71.2890625
1508290495.2433164,15.13671875,33.69140625,39.0625,62.01171875,12.6953125
1508290495.2472227,-7.8125,31.73828125,34.66796875,41.9921875,33.203125
1508290495.251129,-8.7890625,35.15625,36.62109375,18.06640625,-17.578125
1508290495.2532113,9.27734375,35.64453125,37.59765625,67.87109375,-18.5546875
1508290495.2571175,12.20703125,33.203125,39.0625,89.35546875,-9.765625
1508290495.2610238,-4.39453125,33.203125,40.52734375,45.41015625,-19.04296875
1508290495.26493,-1.953125,36.1328125,39.0625,6.8359375,-38.0859375
1508290495.2688363,12.20703125,34.66796875,33.203125,57.12890625,-29.78515625
1508290495.2727425,11.23046875,32.71484375,41.9921875,78.125,-43.45703125
1508290495.2766488,-1.46484375,34.1796875,47.36328125,44.43359375,-16.6015625
1508290495.280555,-14.6484375,34.66796875,49.8046875,6.34765625,5.37109375
1508290495.2844613,-3.90625,34.66796875,46.875,28.3203125,-20.01953125
1508290495.2883675,14.16015625,31.73828125,38.0859375,79.1015625,-9.27734375
1508290495.2922738,-3.90625,27.83203125,40.52734375,66.89453125,-42.48046875
1508290495.29618,-25.390625,26.85546875,40.52734375,17.08984375,-14.6484375
1508290495.2982254,-15.13671875,27.83203125,37.109375,25.390625,29.78515625
1508290495.3021317,6.34765625,26.85546875,36.1328125,79.58984375,12.20703125
1508290495.306038,13.18359375,28.80859375,35.64453125,73.2421875,-3.41796875
1508290495.3099442,-11.71875,34.1796875,39.55078125,4.39453125,-27.83203125
1508290495.3138504,-26.85546875,30.76171875,41.50390625,-10.7421875,-23.4375
1508290495.3177567,-2.9296875,29.296875,36.62109375,66.40625,8.30078125
1508290495.321663,10.7421875,31.73828125,37.109375,79.1015625,-19.53125
1508290495.3255692,-7.32421875,32.2265625,38.57421875,18.5546875,-45.41015625
1508290495.3294754,-13.671875,33.203125,33.203125,-7.8125,-55.17578125
1508290495.3333817,-6.8359375,30.2734375,31.73828125,52.24609375,-33.69140625
1508290495.337288,-14.6484375,29.296875,34.66796875,67.3828125,-16.11328125
1508290495.3411942,-6.8359375,30.2734375,36.1328125,33.69140625,-59.08203125
1508290495.3432565,-5.37109375,26.85546875,35.64453125,-6.34765625,-55.17578125
1508290495.3471627,-5.37109375,26.85546875,35.15625,16.6015625,-32.71484375
1508290495.351069,6.34765625,30.76171875,30.2734375,68.84765625,-49.8046875
1508290495.3549752,9.27734375,28.80859375,29.296875,60.546875,-53.22265625
1508290495.3588815,-9.765625,28.3203125,33.203125,20.5078125,-45.8984375
1508290495.3627877,-17.08984375,29.296875,36.1328125,6.8359375,-29.78515625
1508290495.366694,9.27734375,29.296875,40.0390625,40.0390625,-39.55078125
1508290495.3706002,0.48828125,31.25,39.0625,50.78125,-40.52734375
1508290495.3745065,-22.4609375,29.296875,31.73828125,21.484375,-14.6484375
1508290495.3784127,-10.25390625,33.203125,34.66796875,1.953125,-59.08203125
1508290495.382319,2.44140625,32.2265625,32.2265625,37.109375,-47.8515625
1508290495.3862252,-0.9765625,26.85546875,25.87890625,58.10546875,9.27734375
1508290495.3883078,-15.13671875,27.83203125,26.3671875,36.1328125,12.20703125
1508290495.392214,-10.25390625,32.2265625,30.76171875,-11.23046875,-30.2734375
1508290495.3961203,4.8828125,34.1796875,32.2265625,14.16015625,-5.859375
1508290495.4000266,4.8828125,32.2265625,31.25,57.12890625,29.78515625
1508290495.4039328,-8.7890625,31.25,29.296875,37.109375,-0.48828125
1508290495.407839,-17.08984375,34.1796875,38.0859375,-5.37109375,-9.765625
1508290495.4117453,-11.23046875,32.2265625,43.9453125,-3.90625,-35.15625
1508290495.4156516,-16.11328125,28.3203125,33.69140625,34.1796875,-14.16015625
1508290495.4195578,-8.30078125,28.3203125,31.73828125,40.0390625,19.04296875
1508290495.423464,-14.16015625,30.2734375,33.203125,-22.4609375,-24.90234375
1508290495.4273703,-37.59765625,29.78515625,30.2734375,-22.4609375,-12.20703125
1508290495.4312766,-21.97265625,26.3671875,29.78515625,38.57421875,-0.48828125
1508290495.4483306,-8.30078125,28.80859375,26.85546875,36.1328125,-6.34765625
1508290495.452237,-15.625,34.1796875,27.34375,-15.625,-24.4140625
1508290495.4561431,-21.97265625,39.0625,30.76171875,-32.71484375,-30.2734375
1508290495.4600494,-7.32421875,41.9921875,30.2734375,23.4375,-47.8515625
1508290495.4639556,1.953125,40.52734375,28.3203125,50.29296875,-47.36328125
1508290495.467862,-15.13671875,37.59765625,30.76171875,3.41796875,-13.671875
1508290495.4717681,-32.71484375,37.109375,29.296875,-62.01171875,-37.109375
1508290495.4756744,-22.94921875,36.1328125,22.94921875,-19.53125,-78.125
1508290495.4795806,-2.9296875,33.69140625,25.390625,42.96875,-85.44921875
1508290495.483487,9.27734375,33.69140625,30.2734375,16.6015625,-48.33984375
1508290495.4873931,-13.671875,37.59765625,24.4140625,-49.8046875,-36.1328125
1508290495.4912994,-20.99609375,38.57421875,24.90234375,-11.23046875,-66.89453125
1508290495.4938636,-1.953125,35.15625,31.25,45.41015625,-69.82421875
1508290495.4977698,-5.37109375,35.64453125,29.78515625,45.41015625,-26.85546875
1508290495.501676,-7.32421875,38.0859375,28.3203125,6.34765625,-31.25
1508290495.5055823,-1.46484375,35.64453125,27.83203125,-23.92578125,2.44140625
1508290495.5094886,-0.9765625,33.69140625,29.78515625,28.3203125,1.953125
1508290495.5133948,-11.71875,33.69140625,33.203125,45.41015625,-23.4375
1508290495.517301,-20.99609375,35.64453125,32.71484375,-1.46484375,-41.9921875
1508290495.5212073,-26.3671875,34.66796875,34.1796875,-25.390625,-58.59375
1508290495.5251136,3.41796875,34.66796875,39.0625,28.3203125,-15.625
1508290495.5290198,8.7890625,39.55078125,39.0625,60.05859375,-53.7109375
1508290495.532926,-15.625,36.1328125,31.73828125,23.4375,-70.3125
1508290495.5368323,-15.625,35.64453125,33.203125,-9.27734375,-41.50390625
1508290495.5383945,-1.46484375,37.59765625,36.62109375,21.97265625,-37.109375
1508290495.5423007,18.5546875,35.15625,34.66796875,52.734375,-22.94921875
1508290495.546207,16.11328125,33.203125,36.1328125,38.57421875,-28.3203125
1508290495.5501132,-5.859375,32.2265625,37.59765625,0.0,-16.11328125
1508290495.5540195,-11.23046875,32.71484375,37.59765625,20.01953125,-8.30078125
1508290495.5579257,3.90625,34.66796875,36.62109375,58.10546875,-13.671875
1508290495.561832,19.53125,37.59765625,36.1328125,43.45703125,20.99609375
1508290495.5657382,7.32421875,37.109375,30.76171875,8.7890625,15.625
1508290495.5696445,5.37109375,35.15625,31.25,1.46484375,-30.76171875
1508290495.5735507,34.66796875,35.64453125,36.62109375,38.0859375,-31.25
1508290495.577457,31.73828125,34.66796875,29.78515625,71.2890625,6.34765625
1508290495.5813632,-6.34765625,31.25,33.69140625,32.71484375,-6.8359375
1508290495.5834258,-15.625,31.25,41.015625,-1.46484375,-11.23046875
1508290495.587332,11.23046875,30.2734375,35.15625,56.640625,-6.8359375
1508290495.5912383,19.04296875,27.83203125,33.203125,89.84375,-9.765625
1508290495.5951445,6.8359375,27.34375,39.55078125,39.55078125,4.39453125
1508290495.5990508,4.39453125,25.390625,41.015625,-24.4140625,-14.16015625
1508290495.602957,-2.9296875,21.97265625,38.57421875,1.953125,-3.41796875
1508290495.6068633,-1.953125,20.99609375,37.59765625,52.24609375,11.23046875
1508290495.6107695,21.97265625,23.92578125,40.0390625,50.78125,-15.625
1508290495.6146758,-1.46484375,26.85546875,41.9921875,-13.671875,-67.87109375
1508290495.618582,-18.5546875,26.3671875,38.0859375,-4.39453125,-23.4375
1508290495.6224883,3.41796875,21.97265625,38.0859375,63.96484375,22.94921875
1508290495.6263945,-4.8828125,24.4140625,38.0859375,60.05859375,0.0
1508290495.628959,-21.484375,28.3203125,39.55078125,8.30078125,15.625
1508290495.6328652,-21.97265625,27.34375,41.50390625,-12.20703125,22.4609375
1508290495.6367714,-6.34765625,25.390625,39.0625,42.48046875,47.36328125
1508290495.6406777,0.9765625,25.390625,37.109375,54.6875,73.73046875
1508290495.644584,-5.37109375,27.34375,40.0390625,31.73828125,80.56640625
1508290495.6484902,-7.32421875,34.66796875,44.921875,2.44140625,14.6484375
1508290495.6523964,-8.7890625,36.62109375,39.55078125,28.80859375,-27.34375
1508290495.6563027,-0.9765625,31.25,40.0390625,53.7109375,-52.734375
1508290495.660209,8.30078125,31.73828125,42.48046875,36.62109375,-52.24609375
1508290495.6641152,-8.30078125,32.2265625,39.55078125,9.765625,-12.20703125
1508290495.6680214,-10.7421875,32.2265625,37.109375,32.2265625,-10.25390625
1508290495.6719277,7.32421875,30.76171875,29.296875,78.61328125,-17.08984375
1508290495.6884997,-3.41796875,28.3203125,31.25,55.17578125,19.04296875
1508290495.692406,-31.25,24.90234375,39.55078125,7.32421875,15.13671875
1508290495.6963122,-18.5546875,19.53125,47.8515625,18.5546875,-25.390625
1508290495.7002184,7.8125,25.390625,42.96875,72.265625,-17.08984375
1508290495.7041247,10.25390625,33.203125,33.69140625,77.63671875,22.94921875
1508290495.708031,-8.7890625,34.66796875,34.66796875,21.484375,52.24609375
1508290495.7119372,-30.76171875,39.0625,37.109375,-5.37109375,19.04296875
1508290495.7158434,0.48828125,40.52734375,35.64453125,54.19921875,0.9765625
1508290495.7197497,4.8828125,36.1328125,25.87890625,62.98828125,48.33984375
1508290495.723656,-8.7890625,31.73828125,22.4609375,12.20703125,52.734375
1508290495.7275622,-8.7890625,34.1796875,25.87890625,-26.3671875,6.34765625
1508290495.7314684,-11.71875,34.66796875,26.3671875,17.578125,36.1328125
1508290495.7185209,-6.8359375,34.66796875,23.4375,75.68359375,54.6875
1508290495.7224271,-9.765625,35.15625,27.83203125,58.10546875,29.78515625
1508290495.7263334,-11.23046875,35.15625,35.15625,4.39453125,22.4609375
1508290495.7302396,-11.71875,35.15625,34.1796875,18.5546875,14.16015625
1508290495.7341459,-2.9296875,32.71484375,29.78515625,79.58984375,-0.48828125
1508290495.7380521,-0.48828125,32.71484375,33.203125,73.73046875,-6.34765625
1508290495.7419584,-20.01953125,32.71484375,36.1328125,1.46484375,1.953125
1508290495.7458646,-16.6015625,31.25,34.1796875,4.39453125,6.8359375
1508290495.7497709,5.37109375,29.296875,34.1796875,68.84765625,-2.9296875
1508290495.7536771,7.32421875,28.3203125,33.69140625,75.1953125,21.97265625
1508290495.7575834,-8.7890625,31.73828125,36.62109375,15.13671875,-2.9296875
1508290495.7614896,-30.76171875,30.76171875,37.109375,-14.6484375,-10.7421875
1508290495.763553,-30.76171875,25.390625,33.203125,56.640625,35.64453125
1508290495.7674592,-8.30078125,27.34375,32.71484375,79.58984375,20.99609375
1508290495.7713654,-21.97265625,27.83203125,33.69140625,34.66796875,-3.90625
1508290495.7752717,-43.9453125,26.3671875,34.1796875,-0.9765625,-11.71875
1508290495.779178,-20.01953125,26.3671875,25.390625,36.1328125,6.34765625
1508290495.7830842,-8.30078125,26.85546875,28.80859375,75.1953125,12.20703125
1508290495.7869904,-24.4140625,28.3203125,41.015625,30.2734375,-29.78515625
1508290495.7908967,-54.19921875,26.85546875,39.0625,-19.04296875,-24.90234375
1508290495.794803,-49.8046875,24.90234375,37.109375,14.6484375,-11.71875
1508290495.7987092,-29.296875,24.4140625,34.1796875,61.03515625,-21.97265625
1508290495.8026154,-35.64453125,22.94921875,34.66796875,41.50390625,-16.11328125
1508290495.8065217,-52.734375,21.484375,38.57421875,7.8125,5.37109375
1508290495.823596,-45.41015625,20.5078125,36.1328125,14.16015625,12.20703125
1508290495.8275023,-26.3671875,18.06640625,34.66796875,43.9453125,-14.16015625
1508290495.8314085,-41.9921875,15.625,30.2734375,61.5234375,21.97265625
1508290495.8353148,-60.05859375,14.16015625,27.83203125,28.80859375,56.640625
1508290495.839221,-57.6171875,12.20703125,35.15625,-20.99609375,0.0
1508290495.8431273,-33.69140625,12.6953125,36.62109375,20.01953125,-22.94921875
1508290495.8470335,-25.390625,15.625,35.64453125,48.828125,-24.4140625
1508290495.8509398,-47.36328125,14.6484375,35.64453125,16.6015625,-1.953125
1508290495.854846,-62.01171875,14.16015625,36.1328125,-6.34765625,14.16015625
1508290495.8587523,-40.52734375,16.11328125,41.9921875,5.37109375,-26.85546875
1508290495.8626585,-30.76171875,15.13671875,37.59765625,41.9921875,-32.71484375
1508290495.8665648,-33.203125,13.671875,32.71484375,44.43359375,-4.8828125
1508290495.8686283,-33.203125,15.13671875,37.59765625,-11.71875,-16.6015625
1508290495.8725345,-24.4140625,19.53125,39.0625,0.0,-27.34375
1508290495.8764408,-12.6953125,20.01953125,38.57421875,59.08203125,-24.90234375
1508290495.880347,-28.3203125,17.08984375,34.66796875,53.22265625,-31.73828125
1508290495.8842533,-53.22265625,16.6015625,35.15625,0.0,-27.83203125
1508290495.8881595,-55.17578125,19.04296875,36.62109375,-2.44140625,-17.578125
1508290495.8920658,-37.109375,19.53125,33.69140625,59.08203125,6.8359375
1508290495.895972,-21.484375,19.53125,33.69140625,51.26953125,1.46484375
1508290495.8998783,-34.1796875,20.5078125,35.64453125,-1.953125,-14.6484375
1508290495.9037845,-52.24609375,19.53125,37.109375,-36.1328125,-41.015625
1508290495.9076908,-38.57421875,17.578125,32.71484375,20.01953125,-8.30078125
1508290495.911597,-21.97265625,15.13671875,32.71484375,64.94140625,56.640625
1508290495.9131594,-25.390625,17.08984375,38.57421875,30.2734375,14.6484375
1508290495.9170656,-36.1328125,20.5078125,40.52734375,-11.23046875,-22.94921875
1508290495.9209719,-29.296875,16.11328125,38.57421875,17.578125,3.90625
1508290495.9248781,-8.7890625,12.6953125,37.59765625,60.05859375,13.18359375
1508290495.9287844,-10.7421875,15.625,40.52734375,43.45703125,6.34765625
1508290495.9326906,-24.90234375,19.53125,44.921875,-6.8359375,-23.92578125
1508290495.9365969,-13.18359375,22.4609375,43.9453125,-2.44140625,-26.85546875
1508290495.9405031,-1.953125,20.01953125,37.59765625,52.24609375,-0.9765625
1508290495.9444094,0.9765625,20.5078125,40.52734375,51.7578125,-32.2265625
1508290495.9483156,-4.8828125,23.4375,41.9921875,-4.39453125,-30.76171875
1508290495.9522219,-20.5078125,24.90234375,35.64453125,-7.32421875,7.8125
1508290495.9561281,-16.6015625,24.4140625,34.66796875,50.78125,-2.44140625
1508290495.9582114,-10.7421875,21.97265625,34.1796875,55.6640625,32.2265625
1508290495.9621177,-12.6953125,20.5078125,34.66796875,19.04296875,51.26953125
1508290495.966024,-17.578125,18.5546875,34.1796875,-22.4609375,-8.7890625
1508290495.9699302,-14.16015625,20.01953125,29.78515625,12.20703125,-15.13671875
1508290495.9738364,-3.90625,21.97265625,30.2734375,55.17578125,-8.30078125
1508290495.9777427,-12.20703125,26.85546875,34.1796875,28.80859375,-32.71484375
1508290495.981649,-24.4140625,24.4140625,37.59765625,-29.78515625,-43.45703125
1508290495.9855552,-17.578125,22.4609375,36.1328125,-6.34765625,-74.70703125
1508290495.9894614,-0.9765625,25.87890625,33.69140625,43.9453125,-47.8515625
1508290495.9933677,-7.8125,24.4140625,33.69140625,41.9921875,-12.6953125
1508290495.997274,-17.578125,24.90234375,35.64453125,5.37109375,-11.23046875
1508290496.0011802,-8.7890625,28.80859375,41.015625,-7.8125,-14.6484375
1508290496.0032434,-8.30078125,27.34375,38.57421875,43.45703125,-21.97265625
1508290496.0071497,-4.39453125,26.3671875,33.203125,50.29296875,-8.7890625
1508290496.011056,-11.71875,27.83203125,37.59765625,-2.44140625,-24.90234375
1508290496.0149622,-34.1796875,23.92578125,42.96875,-2.9296875,-55.6640625
1508290496.0188684,7.32421875,25.390625,40.52734375,60.05859375,-56.640625
1508290496.0227747,8.7890625,32.2265625,29.78515625,48.33984375,-10.7421875
1508290496.026681,-54.6875,31.73828125,25.390625,-25.87890625,23.4375
1508290496.0305872,-70.80078125,34.1796875,34.1796875,-71.2890625,4.8828125
1508290496.0344934,-57.6171875,34.66796875,31.25,-43.9453125,7.32421875
1508290496.0383997,-63.4765625,34.1796875,21.484375,-13.18359375,-9.27734375
1508290496.042306,-78.125,35.15625,21.484375,-50.78125,-21.484375
1508290496.0462122,-97.16796875,33.69140625,29.78515625,-123.53515625,-23.4375
1508290496.0632656,-119.140625,33.69140625,29.296875,-122.55859375,34.1796875
1508290496.0671718,-104.98046875,35.64453125,19.53125,-58.59375,32.71484375
1508290496.071078,-93.26171875,37.59765625,22.4609375,-58.10546875,-12.20703125
1508290496.0749843,-123.53515625,32.2265625,25.87890625,-120.1171875,-18.06640625
1508290496.0788906,-134.765625,31.73828125,19.04296875,-134.27734375,-6.34765625
1508290496.0827968,-112.3046875,32.2265625,17.08984375,-74.70703125,31.25
1508290496.086703,-104.4921875,29.296875,23.4375,-69.3359375,3.90625
1508290496.0906093,-116.69921875,32.2265625,22.94921875,-124.0234375,-20.5078125
1508290496.0945156,-103.515625,32.71484375,17.08984375,-122.0703125,-40.52734375
1508290496.0984218,-79.58984375,27.83203125,18.06640625,-42.96875,-18.06640625
1508290496.102328,-78.61328125,26.3671875,20.99609375,-22.94921875,3.90625
1508290496.1062343,-81.54296875,26.3671875,15.13671875,-42.96875,-13.18359375
1508290496.0933073,-78.125,25.390625,16.11328125,-61.5234375,-33.69140625
1508290496.0972135,-54.6875,22.94921875,19.53125,-33.69140625,-0.48828125
1508290496.1011198,-28.3203125,21.97265625,18.06640625,-1.46484375,-2.9296875
1508290496.105026,-21.97265625,20.01953125,15.625,-0.9765625,-26.85546875
1508290496.1089323,-36.62109375,19.53125,17.08984375,-18.06640625,-14.16015625
1508290496.1128385,-33.203125,19.04296875,20.01953125,-4.39453125,-6.8359375
1508290496.1167448,4.39453125,18.5546875,16.6015625,38.0859375,27.83203125
1508290496.120651,14.6484375,20.99609375,14.16015625,45.41015625,21.97265625
1508290496.1245573,-21.484375,20.99609375,16.6015625,2.44140625,16.11328125
1508290496.1284635,-26.85546875,15.625,20.01953125,1.46484375,9.27734375
1508290496.1323698,12.6953125,14.16015625,23.4375,42.48046875,1.46484375
1508290496.136276,14.16015625,15.625,20.99609375,35.15625,9.27734375
1508290496.1383185,-9.27734375,13.671875,19.04296875,11.71875,-16.6015625
1508290496.1422248,-0.9765625,14.6484375,26.3671875,2.9296875,-27.34375
1508290496.146131,23.92578125,15.13671875,29.78515625,58.59375,-7.32421875
1508290496.1500373,33.203125,13.671875,25.87890625,84.47265625,23.4375
1508290496.1539435,33.203125,11.71875,24.4140625,55.6640625,30.76171875
1508290496.1578498,9.27734375,14.16015625,31.73828125,13.18359375,26.85546875
1508290496.161756,11.23046875,16.11328125,31.73828125,34.1796875,5.859375
1508290496.1656623,24.4140625,13.18359375,24.90234375,75.68359375,-30.2734375
1508290496.1695685,10.25390625,12.6953125,25.390625,66.89453125,19.04296875
1508290496.1734748,-5.859375,14.16015625,28.80859375,15.625,24.4140625
1508290496.177381,-0.9765625,17.578125,28.3203125,17.578125,9.27734375
1508290496.1812873,19.53125,18.06640625,23.4375,77.63671875,55.17578125
1508290496.1983662,21.484375,14.6484375,24.4140625,83.0078125,43.45703125
1508290496.2022724,5.859375,17.578125,31.25,14.6484375,-17.08984375
1508290496.2061787,4.39453125,18.5546875,30.76171875,-7.32421875,-76.171875
1508290496.210085,13.18359375,13.671875,24.90234375,73.2421875,0.9765625
1508290496.2139912,18.06640625,16.11328125,24.90234375,100.09765625,0.9765625
1508290496.2178974,9.27734375,19.04296875,27.83203125,48.33984375,-27.83203125
1508290496.2218037,-15.625,17.08984375,31.73828125,-4.8828125,5.37109375
1508290496.22571,-5.859375,17.08984375,31.73828125,43.9453125,-28.3203125
1508290496.2296162,20.99609375,17.08984375,28.80859375,83.0078125,-26.85546875
1508290496.2335224,25.87890625,17.578125,35.15625,43.45703125,-5.37109375
1508290496.2374287,0.48828125,17.578125,33.69140625,-1.953125,15.625
1508290496.241335,-14.16015625,16.11328125,27.83203125,28.3203125,25.390625
1508290496.2434137,8.7890625,15.625,25.87890625,68.84765625,17.578125
1508290496.24732,9.27734375,18.5546875,25.390625,51.26953125,3.41796875
1508290496.2512262,-10.25390625,19.04296875,36.1328125,10.7421875,-33.203125
1508290496.2551324,-7.32421875,18.06640625,37.109375,22.4609375,-22.4609375
1508290496.2590387,11.71875,19.53125,30.2734375,59.5703125,19.04296875
1508290496.262945,7.32421875,23.92578125,32.71484375,50.29296875,35.15625
1508290496.2668512,-5.37109375,24.90234375,33.203125,15.13671875,15.13671875
1508290496.2707574,-14.6484375,22.4609375,31.73828125,0.48828125,35.64453125
1508290496.2746637,-6.8359375,21.484375,33.203125,57.6171875,26.3671875
1508290496.27857,18.5546875,25.87890625,32.2265625,58.59375,-22.94921875
1508290496.2824762,2.9296875,30.2734375,25.87890625,21.97265625,19.04296875
1508290496.2863824,-20.99609375,29.296875,25.87890625,12.20703125,-4.8828125
1508290496.2884283,-1.953125,26.3671875,29.296875,40.0390625,-12.20703125
1508290496.2923346,25.390625,24.4140625,30.76171875,64.453125,-11.23046875
1508290496.2962408,24.90234375,24.4140625,30.2734375,44.43359375,-18.06640625
1508290496.300147,-14.6484375,27.34375,27.34375,3.41796875,3.41796875
1508290496.3040533,-11.23046875,29.296875,29.78515625,17.578125,13.18359375
1508290496.3079596,24.4140625,28.3203125,30.2734375,73.2421875,42.48046875
1508290496.3118658,0.9765625,30.2734375,28.3203125,67.87109375,0.48828125
1508290496.315772,-33.203125,32.2265625,27.83203125,14.6484375,-23.4375
1508290496.3196783,-17.08984375,35.15625,36.62109375,6.8359375,-38.0859375
1508290496.3235846,13.671875,33.69140625,39.0625,60.546875,-52.24609375
1508290496.3274908,10.25390625,27.83203125,31.73828125,83.0078125,4.8828125
1508290496.331397,-16.11328125,30.76171875,38.57421875,40.52734375,36.1328125
1508290496.3334596,-19.04296875,31.25,42.96875,7.32421875,-7.8125
1508290496.3373659,7.32421875,26.85546875,33.69140625,56.15234375,12.20703125
1508290496.341272,12.20703125,25.390625,29.296875,84.9609375,48.33984375
1508290496.3451784,-1.46484375,27.83203125,33.69140625,45.8984375,3.41796875
1508290496.3490846,-7.8125,30.2734375,36.62109375,14.6484375,-26.3671875
1508290496.3529909,6.8359375,29.78515625,34.1796875,37.109375,0.0
1508290496.356897,21.484375,28.80859375,23.4375,61.03515625,41.9921875
1508290496.3608034,6.34765625,31.73828125,26.85546875,57.12890625,4.39453125
1508290496.3647096,-8.30078125,29.296875,39.55078125,-14.16015625,-74.70703125
1508290496.3686159,-6.8359375,22.4609375,32.2265625,0.48828125,-66.40625
1508290496.372522,2.44140625,24.90234375,27.83203125,78.125,5.37109375
1508290496.3764284,13.671875,27.83203125,33.203125,66.89453125,-5.859375
1508290496.3785064,-8.7890625,28.3203125,35.64453125,10.7421875,-11.23046875
1508290496.3824127,-31.25,30.76171875,33.69140625,3.41796875,-24.4140625
1508290496.386319,-7.8125,28.3203125,31.73828125,62.01171875,-27.83203125
1508290496.3902252,1.46484375,24.90234375,30.2734375,68.359375,14.6484375
1508290496.3941314,-10.7421875,27.34375,31.25,22.94921875,20.99609375
1508290496.3980377,-16.11328125,29.296875,32.2265625,-6.8359375,-41.015625
1508290496.401944,-6.8359375,29.296875,27.83203125,28.80859375,-62.5
1508290496.4058502,6.8359375,29.296875,29.78515625,50.29296875,-11.71875
1508290496.4097564,12.20703125,26.3671875,32.2265625,26.3671875,0.9765625
1508290496.4136627,1.46484375,27.83203125,29.296875,10.7421875,-18.06640625
1508290496.417569,-7.32421875,26.85546875,29.296875,30.76171875,-42.96875
1508290496.4214752,12.6953125,21.484375,25.390625,75.1953125,-10.7421875
1508290496.4235244,18.06640625,22.4609375,23.92578125,52.734375,-1.953125
1508290496.4274306,-11.23046875,23.92578125,29.78515625,-20.5078125,-23.4375
1508290496.4313369,-0.48828125,23.4375,34.66796875,-6.8359375,-20.99609375
1508290496.4352431,15.13671875,22.94921875,32.71484375,54.19921875,10.7421875
1508290496.4391494,5.37109375,21.484375,30.2734375,66.40625,24.90234375
1508290496.4430556,-14.6484375,20.99609375,37.59765625,11.23046875,36.1328125
1508290496.4469619,-38.0859375,22.4609375,43.9453125,-4.8828125,56.15234375
1508290496.4508681,-9.27734375,25.390625,39.55078125,44.43359375,-23.92578125
1508290496.4547744,10.7421875,24.90234375,34.1796875,63.4765625,-29.296875
1508290496.4586806,-2.44140625,21.484375,33.69140625,30.2734375,13.18359375
1508290496.4625869,-25.87890625,21.97265625,34.1796875,-20.5078125,20.99609375
1508290496.4664931,-14.6484375,20.01953125,36.1328125,22.4609375,31.73828125
1508290496.4685535,7.32421875,20.01953125,35.15625,59.5703125,5.859375
1508290496.4724598,-12.20703125,18.06640625,29.296875,24.90234375,0.0
1508290496.476366,-23.4375,18.06640625,30.76171875,-15.625,5.37109375
1508290496.4802723,-14.16015625,21.97265625,34.1796875,14.6484375,4.8828125
1508290496.4841785,-11.23046875,20.99609375,31.25,56.640625,27.34375
1508290496.4880848,-12.20703125,19.53125,33.69140625,35.64453125,12.6953125
1508290496.491991,-22.4609375,23.92578125,42.48046875,-16.6015625,-5.859375
1508290496.4958973,-34.1796875,23.4375,41.50390625,-1.46484375,1.953125
1508290496.4998035,-16.11328125,19.53125,33.69140625,62.98828125,-11.23046875
1508290496.5037098,1.46484375,20.5078125,29.78515625,61.03515625,-7.8125
1508290496.507616,-5.37109375,21.97265625,33.203125,13.18359375,10.25390625
1508290496.5115223,-17.578125,22.94921875,37.59765625,-5.859375,8.30078125
1508290496.5135856,-21.484375,22.4609375,34.1796875,52.24609375,29.78515625
1508290496.5174918,-17.578125,22.4609375,35.15625,64.453125,27.83203125
1508290496.521398,-13.671875,25.390625,38.57421875,14.16015625,-7.32421875
1508290496.5253043,-18.5546875,24.90234375,34.66796875,-21.97265625,-14.6484375
1508290496.5292106,-16.11328125,23.92578125,31.73828125,18.06640625,1.46484375
1508290496.5331168,3.90625,26.85546875,35.15625,56.15234375,-16.6015625
1508290496.537023,11.71875,28.3203125,39.0625,19.53125,-31.73828125
1508290496.5409293,-9.765625,32.2265625,30.76171875,-20.5078125,-8.30078125
1508290496.5448356,-18.06640625,27.34375,24.90234375,25.390625,-3.41796875
1508290496.5487418,-12.20703125,19.53125,30.76171875,66.40625,-4.39453125
1508290496.552648,-15.625,20.5078125,32.71484375,40.52734375,-7.32421875
1508290496.5565543,-32.71484375,23.92578125,33.203125,-18.06640625,-37.59765625
1508290496.5736306,-20.99609375,29.296875,35.15625,-0.48828125,-43.45703125
1508290496.5775368,4.8828125,28.80859375,31.25,55.6640625,11.71875
1508290496.581443,-2.44140625,23.92578125,32.71484375,39.55078125,24.4140625
1508290496.5853493,-15.625,23.4375,41.50390625,-0.48828125,0.48828125
1508290496.5892556,-23.92578125,24.90234375,42.96875,-16.11328125,11.23046875
1508290496.5931618,-17.578125,20.99609375,37.59765625,45.41015625,39.55078125
1508290496.597068,4.8828125,20.01953125,36.1328125,50.78125,60.546875
1508290496.6009743,-3.90625,24.90234375,35.64453125,-9.765625,22.94921875
1508290496.6048806,-30.2734375,27.34375,32.71484375,-33.69140625,-22.94921875
1508290496.6087868,-15.625,24.4140625,39.0625,7.32421875,-54.19921875
1508290496.612693,-6.8359375,24.90234375,38.57421875,44.43359375,-32.2265625
1508290496.6165993,-9.27734375,25.390625,38.57421875,41.9921875,20.99609375
1508290496.6182363,-23.92578125,24.4140625,49.8046875,-3.41796875,18.5546875
1508290496.6221426,-31.25,25.390625,51.7578125,7.8125,5.37109375
1508290496.6260488,-10.25390625,24.90234375,49.31640625,67.87109375,-11.23046875
1508290496.629955,-13.671875,27.83203125,51.26953125,53.7109375,13.671875
1508290496.6338613,-35.15625,25.390625,60.05859375,-7.32421875,21.484375
1508290496.6377676,-33.203125,24.4140625,61.03515625,-12.6953125,-6.8359375
1508290496.6416738,-20.5078125,28.3203125,51.7578125,44.921875,38.57421875
1508290496.64558,-7.32421875,29.296875,50.29296875,51.7578125,48.33984375
1508290496.6494863,-12.20703125,30.76171875,53.22265625,7.32421875,-14.16015625
1508290496.6533926,-31.25,28.80859375,58.10546875,-29.78515625,-18.5546875
1508290496.6572988,-19.04296875,29.78515625,49.31640625,7.8125,17.578125
1508290496.661205,2.44140625,29.78515625,46.38671875,62.01171875,-3.90625
1508290496.678277,-17.08984375,26.3671875,54.6875,41.015625,-1.953125
1508290496.6821833,-52.734375,27.83203125,56.15234375,-14.6484375,35.15625
1508290496.6860895,-32.2265625,31.25,54.6875,13.671875,34.66796875
1508290496.6899958,-8.30078125,36.1328125,52.734375,60.546875,37.109375
1508290496.693902,-26.85546875,33.203125,53.7109375,54.6875,26.3671875
1508290496.6978083,-43.9453125,29.78515625,54.19921875,-12.6953125,-35.15625
1508290496.7017145,-33.203125,30.76171875,47.8515625,-21.97265625,3.90625
1508290496.7056208,-13.671875,29.296875,35.64453125,38.57421875,80.56640625
1508290496.709527,-15.13671875,28.80859375,35.64453125,15.625,28.80859375
1508290496.7134333,-26.3671875,27.83203125,41.50390625,-34.66796875,-8.30078125
1508290496.7173395,-36.1328125,25.390625,35.15625,-20.99609375,-17.578125
1508290496.7212458,-26.85546875,21.484375,31.25,45.41015625,-1.46484375
1508290496.7083008,-20.99609375,20.5078125,26.85546875,52.734375,23.4375
1508290496.712207,-44.921875,21.97265625,22.94921875,-7.32421875,1.46484375
1508290496.7161133,-57.6171875,23.4375,25.390625,-31.25,-1.953125
1508290496.7200196,-30.76171875,21.97265625,27.34375,16.6015625,2.9296875
1508290496.7239258,-28.80859375,21.97265625,23.92578125,42.48046875,19.04296875
1508290496.727832,-36.1328125,24.4140625,25.87890625,26.3671875,8.7890625
1508290496.7317383,-27.34375,25.390625,24.4140625,-24.90234375,16.6015625
1508290496.7356446,-29.296875,28.80859375,19.53125,1.46484375,28.80859375
1508290496.7395508,-27.83203125,24.90234375,22.4609375,52.24609375,35.64453125
1508290496.743457,-20.99609375,20.99609375,20.01953125,27.34375,25.390625
1508290496.7473633,-32.2265625,24.4140625,20.01953125,-19.04296875,31.25
1508290496.7512696,-28.3203125,26.85546875,24.4140625,-6.8359375,27.83203125
1508290496.7533324,-16.11328125,25.87890625,24.4140625,28.80859375,8.30078125
1508290496.7572386,-23.4375,22.94921875,22.4609375,31.73828125,-5.859375
1508290496.7611449,-29.296875,22.4609375,27.34375,15.13671875,-40.0390625
1508290496.7650511,-15.625,22.94921875,30.2734375,-13.18359375,-25.87890625
1508290496.7689574,14.6484375,20.5078125,27.83203125,34.66796875,-2.44140625
1508290496.7728636,-7.8125,20.99609375,26.3671875,50.29296875,26.85546875
1508290496.7767699,-38.0859375,17.08984375,26.85546875,3.41796875,55.6640625
1508290496.7806761,-30.76171875,18.06640625,30.76171875,-22.4609375,5.37109375
1508290496.7845824,-15.13671875,22.4609375,27.83203125,19.04296875,-5.37109375
1508290496.7884886,-10.25390625,20.5078125,18.06640625,69.3359375,45.8984375
1508290496.7923949,-5.859375,22.4609375,19.53125,32.71484375,31.73828125
1508290496.7963011,-30.76171875,25.87890625,23.92578125,-19.04296875,10.25390625
1508290496.813373,-30.2734375,23.4375,22.4609375,5.37109375,32.2265625
1508290496.8172793,-4.39453125,18.06640625,22.4609375,58.59375,33.203125
1508290496.8211856,-8.7890625,17.578125,25.390625,57.12890625,-0.48828125
1508290496.8250918,-10.7421875,22.4609375,29.78515625,-13.18359375,-12.6953125
1508290496.828998,-11.23046875,21.97265625,25.390625,-16.11328125,-0.9765625
1508290496.8329043,-4.39453125,19.04296875,22.4609375,62.01171875,-5.37109375
1508290496.8368106,8.30078125,19.04296875,23.92578125,71.2890625,-32.2265625
1508290496.8407168,0.0,20.99609375,27.34375,1.953125,-32.71484375
1508290496.844623,-15.625,20.01953125,24.90234375,-12.20703125,17.578125
1508290496.8485293,8.30078125,17.08984375,17.08984375,64.453125,35.64453125
1508290496.8524356,10.7421875,16.11328125,22.4609375,74.21875,15.13671875
1508290496.8563418,-13.18359375,15.13671875,24.90234375,26.3671875,10.7421875
1508290496.8584056,-19.53125,15.13671875,24.4140625,-11.71875,21.97265625
1508290496.8623118,-7.8125,15.625,29.296875,25.390625,5.859375
1508290496.866218,11.71875,16.6015625,30.76171875,87.40234375,21.484375
1508290496.8701243,10.25390625,20.5078125,31.73828125,65.4296875,71.77734375
1508290496.8740306,-18.06640625,20.01953125,32.71484375,-2.9296875,50.29296875
1508290496.8779368,-4.8828125,19.04296875,32.71484375,11.71875,39.0625
1508290496.881843,15.13671875,18.06640625,25.390625,45.41015625,99.12109375
1508290496.8857493,-15.625,21.484375,25.390625,45.8984375,78.125
1508290496.8896556,-21.97265625,22.94921875,34.1796875,21.97265625,39.55078125
1508290496.8935618,-9.27734375,21.97265625,35.64453125,18.06640625,50.78125
1508290496.897468,0.48828125,21.97265625,37.109375,45.8984375,49.8046875
1508290496.9013743,5.859375,19.04296875,34.66796875,47.8515625,41.015625
1508290496.8884263,-6.34765625,19.53125,27.83203125,17.578125,28.80859375
1508290496.8923326,-23.92578125,20.01953125,28.80859375,-20.99609375,-21.484375
1508290496.8962388,-18.5546875,20.5078125,30.76171875,27.34375,-38.0859375
1508290496.900145,3.90625,19.04296875,24.90234375,61.5234375,6.8359375
1508290496.9040513,-6.34765625,17.08984375,24.4140625,42.96875,35.64453125
1508290496.9079576,-15.13671875,18.5546875,30.76171875,4.39453125,10.7421875
1508290496.9118638,-4.8828125,20.01953125,27.83203125,24.4140625,25.390625
1508290496.91577,11.71875,18.5546875,27.34375,61.5234375,64.94140625
1508290496.9196763,3.90625,18.06640625,20.99609375,59.08203125,41.9921875
1508290496.9235826,-20.5078125,18.5546875,17.578125,15.13671875,19.53125
1508290496.9274888,-19.04296875,21.97265625,25.390625,-10.7421875,16.6015625
1508290496.931395,-11.23046875,22.4609375,22.4609375,39.0625,22.4609375
1508290496.9489732,-19.53125,21.484375,19.04296875,53.22265625,-1.953125
1508290496.9528794,-34.66796875,26.3671875,18.5546875,-2.9296875,-22.94921875
1508290496.9567857,-23.92578125,25.87890625,24.90234375,-8.30078125,-5.859375
1508290496.960692,4.8828125,27.83203125,30.76171875,48.33984375,41.9921875
1508290496.9645982,3.90625,29.296875,33.203125,65.4296875,49.8046875
1508290496.9685044,-23.92578125,28.80859375,40.52734375,12.20703125,1.46484375
1508290496.9724107,-26.85546875,32.71484375,40.0390625,-21.484375,12.6953125
1508290496.976317,-19.04296875,32.71484375,33.203125,47.8515625,44.921875
1508290496.9802232,-16.6015625,31.25,32.2265625,74.70703125,38.0859375
1508290496.9841294,-15.625,30.2734375,35.64453125,29.296875,34.66796875
1508290496.9880357,-26.3671875,31.25,36.1328125,-5.37109375,38.0859375
1508290496.991942,-32.71484375,33.203125,30.2734375,19.04296875,35.15625
1508290497.008585,-11.71875,36.1328125,27.34375,52.24609375,21.97265625
1508290497.0124912,-12.6953125,33.69140625,33.203125,32.71484375,22.4609375
1508290497.0163975,-44.43359375,35.64453125,35.64453125,-14.6484375,31.73828125
1508290497.0203037,-35.15625,39.0625,20.5078125,-2.44140625,-0.48828125
1508290497.02421,-11.71875,37.59765625,17.578125,55.17578125,15.625
1508290497.0281162,-15.13671875,35.64453125,28.3203125,42.48046875,24.90234375
1508290497.0320225,-35.64453125,41.015625,33.69140625,-10.25390625,5.37109375
1508290497.0359287,-51.26953125,41.9921875,30.76171875,-27.83203125,13.18359375
1508290497.039835,-27.34375,38.57421875,24.90234375,26.85546875,40.52734375
1508290497.0437412,-7.8125,40.52734375,23.4375,33.69140625,39.0625
1508290497.0476475,-10.25390625,40.52734375,24.90234375,-2.9296875,46.38671875
1508290497.0515537,-15.625,45.8984375,26.85546875,-20.5078125,3.41796875
1508290497.0386064,-24.4140625,48.828125,24.4140625,21.97265625,-13.18359375
1508290497.0425127,-31.25,45.8984375,31.25,49.8046875,23.4375
1508290497.046419,-25.87890625,45.41015625,35.15625,18.06640625,23.4375
1508290497.0503252,-20.99609375,44.43359375,37.59765625,-23.4375,-11.71875
1508290497.0542314,-42.48046875,42.96875,39.55078125,0.48828125,-43.45703125
1508290497.0581377,-32.71484375,46.875,39.0625,44.43359375,-10.25390625
1508290497.062044,-16.11328125,52.24609375,39.55078125,33.203125,62.5
1508290497.0659502,-34.1796875,52.734375,39.55078125,-19.53125,27.83203125
1508290497.0698564,-31.73828125,55.17578125,37.59765625,-39.0625,-48.828125
1508290497.0737627,-9.765625,53.7109375,34.1796875,30.2734375,5.37109375
1508290497.077669,-20.01953125,51.26953125,32.71484375,53.7109375,57.6171875
1508290497.0815752,-28.3203125,47.8515625,29.78515625,5.859375,46.875
1508290497.083138,-25.87890625,49.31640625,37.109375,-39.55078125,0.0
1508290497.0870442,-24.90234375,49.31640625,35.15625,12.20703125,-11.71875
1508290497.0909505,-19.04296875,43.45703125,25.87890625,66.89453125,4.39453125
1508290497.0948567,-34.1796875,46.38671875,28.3203125,6.8359375,-1.46484375
1508290497.098763,-37.109375,49.31640625,33.203125,-37.109375,-15.13671875
1508290497.1026692,-16.11328125,50.29296875,33.69140625,14.6484375,-7.8125
1508290497.1065755,-17.08984375,44.43359375,33.203125,45.8984375,11.71875
1508290497.1104817,-24.90234375,42.48046875,37.109375,45.41015625,-19.53125
1508290497.114388,-37.109375,45.41015625,40.0390625,-21.97265625,-37.59765625
1508290497.1182942,-49.8046875,43.9453125,34.66796875,-35.64453125,-58.59375
1508290497.1222005,-32.2265625,42.48046875,34.1796875,41.015625,-56.15234375
1508290497.1261067,-22.94921875,41.50390625,36.62109375,42.48046875,-28.3203125
1508290497.1432266,-43.45703125,42.48046875,37.59765625,-16.6015625,-22.94921875
1508290497.1471329,-38.0859375,42.48046875,37.59765625,-17.578125,-19.53125
1508290497.1510391,-33.203125,44.43359375,35.64453125,53.7109375,-11.71875
1508290497.1549454,-20.5078125,45.8984375,34.66796875,45.8984375,-23.92578125
1508290497.1588516,-22.94921875,47.36328125,33.69140625,-21.484375,-45.41015625
1508290497.1627579,-49.31640625,45.8984375,36.1328125,-27.83203125,-32.2265625
1508290497.1666641,-31.25,44.43359375,36.62109375,27.34375,-27.34375
1508290497.1705704,-15.13671875,43.9453125,42.48046875,42.96875,-65.91796875
1508290497.1744766,-37.109375,43.45703125,46.38671875,6.34765625,-45.8984375
1508290497.1783829,-48.33984375,43.45703125,43.45703125,-16.11328125,3.41796875
1508290497.1822891,-19.04296875,43.45703125,41.50390625,0.0,-13.671875
1508290497.1861954,-14.16015625,43.45703125,41.50390625,43.45703125,-14.6484375
1508290497.1732478,-21.484375,43.45703125,39.55078125,37.59765625,28.80859375
1508290497.177154,-45.8984375,44.921875,39.0625,-19.53125,0.0
1508290497.1810603,-37.59765625,42.48046875,44.43359375,-3.41796875,-26.85546875
1508290497.1849666,-7.32421875,41.015625,47.36328125,55.6640625,17.08984375
1508290497.1888728,-16.11328125,41.9921875,41.50390625,46.875,44.921875
1508290497.192779,-21.484375,41.50390625,38.57421875,-11.23046875,4.39453125
1508290497.1966853,-15.625,41.50390625,46.875,-34.1796875,-17.578125
1508290497.2005916,-28.80859375,38.0859375,51.7578125,20.01953125,-6.8359375
1508290497.2044978,-36.62109375,36.62109375,46.38671875,50.29296875,13.671875
1508290497.208404,-37.109375,35.64453125,42.96875,20.01953125,-9.765625
1508290497.2123103,-37.59765625,35.64453125,48.828125,-5.37109375,-49.8046875
1508290497.2162166,-24.4140625,39.55078125,53.22265625,10.25390625,-26.3671875
1508290497.2182596,1.953125,39.0625,51.26953125,33.69140625,-15.13671875
1508290497.2221658,-11.71875,40.0390625,47.36328125,31.25,-56.640625
1508290497.226072,-41.015625,43.45703125,49.31640625,-18.5546875,-87.890625
1508290497.2299783,-10.7421875,42.96875,46.38671875,-6.8359375,-45.41015625
1508290497.2338846,13.671875,40.52734375,40.0390625,67.3828125,-6.34765625
1508290497.2377908,-1.46484375,40.0390625,44.921875,64.453125,-4.39453125
1508290497.241697,-33.203125,41.50390625,55.17578125,-18.5546875,-18.06640625
1508290497.2456033,-31.25,36.62109375,52.24609375,-40.0390625,-31.73828125
1508290497.2495096,4.8828125,37.59765625,43.9453125,37.59765625,-17.08984375
1508290497.2534158,-3.90625,41.50390625,45.8984375,61.03515625,0.0
1508290497.257322,-34.1796875,37.59765625,47.8515625,-1.46484375,-8.30078125
1508290497.2612283,-34.1796875,38.0859375,48.828125,-9.27734375,-18.06640625
1508290497.2633119,1.46484375,38.57421875,45.8984375,49.31640625,-19.04296875
1508290497.267218,-2.9296875,35.15625,42.96875,49.31640625,-12.20703125
1508290497.2711244,-30.2734375,34.66796875,47.36328125,11.23046875,-4.8828125
1508290497.2750306,-40.52734375,36.1328125,47.36328125,-12.20703125,-12.6953125
1508290497.2789369,-14.6484375,38.57421875,43.45703125,27.83203125,0.9765625
1508290497.282843,6.8359375,37.109375,47.36328125,62.5,5.37109375
1508290497.2867494,-17.578125,38.57421875,49.31640625,23.4375,-20.01953125
1508290497.2906556,-41.015625,39.0625,44.43359375,-22.94921875,-11.23046875
1508290497.2945619,-18.06640625,36.1328125,39.55078125,10.7421875,-14.16015625
1508290497.298468,-1.46484375,38.0859375,37.59765625,48.828125,-9.27734375
1508290497.3023744,-20.01953125,36.1328125,39.55078125,48.33984375,12.20703125
1508290497.3062806,-29.78515625,35.64453125,43.45703125,5.37109375,40.52734375
1508290497.323334,-25.87890625,40.0390625,42.96875,-4.8828125,9.765625
1508290497.3272402,-16.11328125,37.59765625,38.57421875,54.6875,0.0
1508290497.3311465,-8.7890625,36.62109375,42.96875,52.24609375,-6.34765625
1508290497.3350527,-6.34765625,40.52734375,45.8984375,14.16015625,-27.83203125
1508290497.338959,-26.3671875,37.59765625,40.0390625,-11.71875,-17.08984375
1508290497.3428652,-14.16015625,35.15625,43.45703125,36.1328125,-40.52734375
1508290497.3467715,25.87890625,38.0859375,44.921875,57.6171875,-41.015625
1508290497.3506777,4.8828125,37.59765625,44.921875,22.4609375,10.7421875
1508290497.354584,-34.66796875,37.109375,50.78125,6.8359375,-15.13671875
1508290497.3584902,-26.85546875,39.0625,51.26953125,25.87890625,-47.8515625
1508290497.3623965,-4.8828125,39.55078125,46.38671875,59.5703125,0.0
1508290497.3663027,-4.8828125,38.57421875,41.9921875,54.19921875,36.62109375
1508290497.368366,-16.11328125,40.52734375,46.875,4.39453125,-18.06640625
1508290497.3722723,-23.4375,41.50390625,51.26953125,13.18359375,-12.20703125
1508290497.3761785,-25.390625,40.0390625,45.41015625,52.734375,26.3671875
1508290497.3800848,-21.484375,39.55078125,42.96875,49.8046875,4.8828125
1508290497.383991,-16.6015625,39.55078125,40.0390625,12.20703125,-14.6484375
1508290497.3878973,-22.94921875,40.0390625,40.0390625,2.44140625,-27.34375
1508290497.3918035,-25.390625,38.57421875,41.50390625,43.45703125,19.53125
1508290497.3957098,-9.765625,37.109375,38.0859375,55.17578125,-31.73828125
1508290497.399616,-19.04296875,39.0625,43.9453125,8.7890625,-76.66015625
1508290497.4035223,-32.2265625,43.45703125,43.9453125,-18.06640625,-47.36328125
1508290497.4074285,-10.25390625,43.45703125,36.1328125,39.55078125,-43.9453125
1508290497.4113348,15.625,42.96875,37.109375,63.4765625,-35.15625
1508290497.4134183,-1.46484375,45.8984375,39.0625,24.90234375,4.8828125
1508290497.4173245,-32.2265625,45.41015625,40.0390625,-14.16015625,20.01953125
1508290497.4212308,-15.13671875,45.41015625,40.0390625,31.73828125,21.484375
1508290497.425137,-1.46484375,45.41015625,39.55078125,69.3359375,18.06640625
1508290497.4290433,-22.94921875,43.45703125,42.48046875,56.640625,-2.44140625
1508290497.4329495,-40.0390625,43.9453125,45.8984375,3.41796875,8.30078125
1508290497.4368558,-19.04296875,47.36328125,44.43359375,-12.20703125,-18.5546875
1508290497.440762,-15.625,47.8515625,40.0390625,55.6640625,-1.953125
1508290497.4446683,-26.3671875,45.8984375,43.9453125,54.19921875,52.24609375
1508290497.4485745,-30.2734375,45.41015625,48.828125,-11.23046875,18.5546875
1508290497.4524808,-33.203125,44.43359375,41.9921875,0.9765625,-13.671875
1508290497.456387,-15.13671875,40.52734375,40.0390625,52.734375,-18.5546875
1508290497.4584298,-12.6953125,38.57421875,41.015625,57.12890625,55.6640625
1508290497.462336,-30.76171875,40.0390625,41.015625,22.94921875,68.84765625
1508290497.4662423,-35.15625,43.45703125,44.43359375,-14.16015625,-7.8125
1508290497.4701486,-29.296875,44.43359375,42.96875,29.296875,-6.8359375
1508290497.4740548,-25.390625,41.9921875,41.50390625,60.05859375,12.20703125
1508290497.477961,-27.34375,41.50390625,39.55078125,29.78515625,-14.16015625
1508290497.4818673,-34.1796875,40.0390625,38.57421875,-10.25390625,-13.18359375
1508290497.4857736,-27.83203125,38.0859375,38.0859375,23.4375,-11.23046875
1508290497.4896798,-6.34765625,39.55078125,34.1796875,56.640625,-17.08984375
1508290497.493586,3.90625,41.015625,30.2734375,34.1796875,16.6015625
1508290497.4974923,-40.0390625,39.55078125,35.64453125,-1.46484375,23.92578125
1508290497.5013986,-42.48046875,36.62109375,41.9921875,2.44140625,11.23046875
1508290497.503462,-20.5078125,34.66796875,36.1328125,43.45703125,43.45703125
1508290497.5073683,-20.99609375,35.15625,33.203125,62.98828125,26.3671875
1508290497.5112746,-21.97265625,37.109375,37.109375,22.4609375,-12.20703125
1508290497.5151808,-34.66796875,38.0859375,39.55078125,-23.92578125,12.6953125
1508290497.519087,-37.109375,37.109375,36.1328125,29.296875,27.34375
1508290497.5229933,-42.48046875,38.0859375,37.109375,57.6171875,2.9296875
1508290497.5268996,-48.828125,36.1328125,36.62109375,-0.9765625,-11.71875
1508290497.5308058,-45.8984375,36.62109375,32.2265625,-33.69140625,-30.2734375
1508290497.534712,-39.0625,41.9921875,36.62109375,11.71875,-21.484375
1508290497.5386183,-23.4375,40.0390625,36.1328125,47.36328125,18.5546875
1508290497.5425246,-27.83203125,39.0625,38.0859375,41.50390625,0.0
1508290497.5464308,-56.640625,40.0390625,43.9453125,2.9296875,-36.62109375
1508290497.548527,-48.33984375,37.59765625,42.48046875,11.71875,-31.25
1508290497.5524333,-20.5078125,36.1328125,35.15625,54.19921875,-29.78515625
1508290497.5563395,-28.3203125,31.73828125,35.64453125,45.8984375,-60.546875
1508290497.5602458,-16.6015625,34.66796875,38.57421875,-4.39453125,-60.546875
1508290497.564152,-21.97265625,39.0625,36.62109375,-2.9296875,-37.109375
1508290497.5680583,-42.48046875,35.64453125,38.0859375,52.24609375,-22.4609375
1508290497.5719645,-26.85546875,37.109375,41.50390625,60.546875,-13.18359375
1508290497.5758708,-26.3671875,42.48046875,45.41015625,4.8828125,-32.2265625
1508290497.579777,-35.64453125,42.96875,41.9921875,-22.4609375,-47.36328125
1508290497.5836833,-18.06640625,39.55078125,36.62109375,40.52734375,-19.04296875
1508290497.5875895,5.859375,40.0390625,37.109375,69.82421875,0.9765625
1508290497.5914958,-13.18359375,43.9453125,41.50390625,30.2734375,-23.92578125
1508290497.5935488,-39.55078125,47.8515625,43.45703125,0.9765625,-58.10546875
1508290497.597455,-30.76171875,51.26953125,41.015625,52.24609375,-24.4140625
1508290497.6013613,-0.48828125,51.26953125,41.50390625,70.3125,21.484375
1508290497.6052675,-14.6484375,50.78125,43.45703125,29.78515625,49.31640625
1508290497.6091738,-54.6875,51.7578125,42.48046875,-11.71875,29.78515625
1508290497.61308,-43.45703125,49.8046875,46.875,6.8359375,25.390625
1508290497.6169863,-14.6484375,46.875,51.26953125,43.45703125,21.97265625
1508290497.6208925,-9.27734375,46.875,47.36328125,13.18359375,-16.6015625
1508290497.6247988,-40.0390625,47.8515625,39.55078125,-10.25390625,-11.71875
1508290497.628705,-47.8515625,47.8515625,37.109375,7.8125,-23.92578125
1508290497.6326113,-35.15625,47.8515625,41.50390625,42.96875,-16.6015625
1508290497.6365175,-34.66796875,47.36328125,47.8515625,55.17578125,19.53125
1508290497.6385815,-34.66796875,44.43359375,47.8515625,20.01953125,19.04296875
1508290497.6424878,-31.25,43.9453125,45.41015625,-7.32421875,-27.83203125
1508290497.646394,-28.80859375,42.96875,41.9921875,41.50390625,-44.921875
1508290497.6503003,-36.1328125,37.109375,42.96875,55.17578125,-16.6015625
1508290497.6542065,-52.24609375,39.55078125,44.43359375,4.39453125,-45.41015625
1508290497.6581128,-46.875,39.55078125,44.43359375,-20.01953125,-56.640625
1508290497.662019,-26.3671875,38.57421875,43.9453125,3.41796875,-66.89453125
1508290497.6659253,-20.99609375,38.57421875,36.1328125,36.62109375,-72.265625
1508290497.6698315,-34.1796875,33.203125,39.55078125,41.50390625,-5.37109375
1508290497.6737378,-50.78125,31.73828125,48.33984375,-13.18359375,17.578125
1508290497.677644,-51.26953125,34.1796875,47.8515625,-7.32421875,-2.44140625
1508290497.6815503,-41.9921875,33.69140625,41.9921875,51.26953125,27.83203125
1508290497.6986406,-22.4609375,32.71484375,41.015625,57.12890625,27.83203125
1508290497.7025468,-44.43359375,34.1796875,41.9921875,-1.46484375,5.37109375
1508290497.706453,-62.98828125,32.2265625,48.33984375,-23.4375,-1.953125
1508290497.7103593,-38.57421875,30.76171875,41.9921875,27.83203125,-21.97265625
1508290497.7142656,-35.15625,33.69140625,30.2734375,54.19921875,-22.4609375
1508290497.7181718,-35.15625,35.15625,36.62109375,-1.46484375,-50.78125
1508290497.722078,-37.59765625,39.0625,40.52734375,-49.8046875,-48.828125
1508290497.7259843,-35.64453125,33.69140625,35.64453125,27.34375,36.1328125
1508290497.7298906,-7.32421875,29.78515625,39.0625,66.89453125,1.46484375
1508290497.7337968,-32.2265625,36.1328125,37.59765625,13.18359375,-49.31640625
1508290497.737703,-73.2421875,37.109375,35.15625,-43.45703125,-31.25
1508290497.7416093,-52.24609375,37.109375,33.203125,-7.8125,-19.53125
1508290497.7431536,-31.25,35.15625,33.69140625,31.25,-10.25390625
1508290497.7470598,-38.0859375,32.2265625,35.15625,7.32421875,-15.625
1508290497.750966,-43.45703125,37.59765625,35.64453125,-34.1796875,-19.04296875
1508290497.7548723,-46.38671875,36.62109375,39.0625,-19.53125,-38.0859375
1508290497.7587786,-34.66796875,31.73828125,37.109375,41.50390625,-1.953125
1508290497.7626848,-29.78515625,33.203125,35.64453125,27.83203125,0.0
1508290497.766591,-50.78125,39.0625,35.15625,-20.5078125,-5.37109375
1508290497.7704973,-32.2265625,34.66796875,35.15625,-20.5078125,5.37109375
1508290497.7744036,-10.25390625,28.3203125,37.109375,21.97265625,-0.9765625
1508290497.7783098,-29.296875,30.76171875,35.64453125,24.4140625,-38.57421875
1508290497.782216,-37.59765625,30.76171875,24.90234375,-11.23046875,-18.5546875
1508290497.7861223,-37.59765625,30.76171875,27.34375,-20.01953125,-10.7421875
1508290497.789186,-40.0390625,32.71484375,33.69140625,3.90625,-45.8984375
1508290497.7930923,-30.76171875,29.78515625,33.69140625,41.50390625,-39.0625
1508290497.7969985,-34.1796875,22.4609375,33.69140625,26.3671875,-25.87890625
1508290497.8009048,-42.48046875,25.390625,36.1328125,-28.3203125,-17.578125
1508290497.804811,-22.94921875,25.390625,37.109375,12.20703125,0.9765625
1508290497.8087173,-16.11328125,22.94921875,35.64453125,52.734375,-3.41796875
1508290497.8126235,-23.4375,23.4375,39.0625,17.08984375,-5.859375
1508290497.8165298,-33.69140625,26.3671875,38.57421875,-11.71875,-15.13671875
1508290497.820436,-31.25,29.78515625,35.15625,-1.46484375,-51.26953125
1508290497.8243423,-16.6015625,28.80859375,31.73828125,34.1796875,-41.9921875
1508290497.8282485,-15.625,28.3203125,33.69140625,44.921875,-13.671875
1508290497.8321548,-12.20703125,29.78515625,40.52734375,28.80859375,-14.6484375
1508290497.8332376,-24.90234375,28.3203125,42.96875,4.8828125,-11.23046875
1508290497.837144,-16.6015625,27.83203125,39.0625,43.45703125,2.9296875
1508290497.8410501,-8.30078125,28.3203125,37.109375,72.75390625,-5.859375
1508290497.8449564,-14.16015625,30.76171875,39.0625,24.4140625,-22.4609375
1508290497.8488626,-20.01953125,33.69140625,37.59765625,-14.6484375,-35.15625
1508290497.852769,-6.8359375,35.64453125,37.59765625,24.90234375,-19.04296875
1508290497.8566751,-11.71875,37.59765625,38.57421875,75.1953125,13.18359375
1508290497.8605814,-24.4140625,35.64453125,38.57421875,54.19921875,12.20703125
1508290497.8644876,-15.625,37.59765625,41.9921875,2.9296875,-53.22265625
1508290497.868394,-21.97265625,40.52734375,40.0390625,16.6015625,-53.7109375
1508290497.8723001,-2.9296875,35.15625,37.109375,58.59375,9.27734375
1508290497.8762064,14.16015625,34.66796875,36.62109375,50.78125,7.8125
1508290497.878249,-4.39453125,38.57421875,39.0625,-2.9296875,6.34765625
1508290497.8821552,-24.90234375,37.59765625,41.015625,10.25390625,59.5703125
1508290497.8860614,-21.484375,35.64453125,41.50390625,66.89453125,49.8046875
1508290497.8899677,-5.37109375,38.0859375,41.50390625,49.8046875,23.4375
1508290497.893874,-0.9765625,38.57421875,41.50390625,9.765625,27.83203125
1508290497.8977802,-21.484375,36.1328125,42.48046875,1.46484375,38.57421875
1508290497.9016864,-11.71875,35.64453125,37.109375,42.96875,50.29296875
1508290497.9055927,12.20703125,36.1328125,38.57421875,61.5234375,23.4375
1508290497.909499,-10.25390625,38.57421875,41.50390625,17.08984375,18.5546875
1508290497.9134052,-28.80859375,39.55078125,37.59765625,-3.90625,40.0390625
1508290497.9173114,-21.484375,33.69140625,32.71484375,49.8046875,48.828125
1508290497.9212177,1.46484375,29.78515625,27.34375,62.5,20.5078125
1508290497.9232829,3.90625,32.71484375,27.34375,31.73828125,20.99609375
1508290497.927189,-13.671875,39.0625,29.296875,-3.90625,34.1796875
1508290497.9310954,-13.671875,38.57421875,27.83203125,14.16015625,-20.99609375
1508290497.9350016,6.8359375,33.203125,27.34375,66.89453125,-16.6015625
1508290497.9389079,6.34765625,33.69140625,30.2734375,57.6171875,9.27734375
1508290497.942814,-5.859375,34.1796875,35.64453125,11.23046875,13.671875
1508290497.9467204,1.953125,36.62109375,40.52734375,8.30078125,35.64453125
1508290497.9506266,-2.44140625,38.57421875,31.73828125,40.0390625,17.578125
1508290497.9545329,-20.99609375,37.109375,22.4609375,48.33984375,20.01953125
1508290497.958439,-19.53125,38.57421875,25.87890625,22.94921875,6.8359375
1508290497.9623454,-23.4375,41.9921875,28.3203125,-6.34765625,7.32421875
1508290497.9662516,-6.34765625,38.57421875,27.34375,35.64453125,48.828125
1508290497.968315,10.25390625,36.62109375,24.90234375,64.453125,27.34375
1508290497.9722211,-12.20703125,38.57421875,27.83203125,35.64453125,21.97265625
1508290497.9761274,-35.15625,41.50390625,32.2265625,-17.08984375,-22.4609375
1508290497.9800336,-34.66796875,41.015625,25.87890625,12.20703125,-19.04296875
1508290497.98394,-9.27734375,38.0859375,24.90234375,69.3359375,35.15625
1508290497.9878461,-1.953125,35.15625,27.34375,41.015625,-17.08984375
1508290497.9917524,-28.80859375,35.64453125,34.66796875,-17.578125,-39.0625
1508290497.9956586,-35.64453125,37.109375,34.66796875,-16.6015625,-19.04296875
1508290497.999565,-18.5546875,33.69140625,19.04296875,46.38671875,-2.9296875
1508290498.0034711,-11.71875,31.25,21.484375,57.6171875,20.99609375
1508290498.0073774,-22.94921875,31.73828125,31.25,-4.39453125,45.41015625
1508290498.0112836,-43.9453125,31.73828125,28.80859375,-13.671875,26.85546875
1508290498.0133452,-42.96875,32.2265625,24.90234375,48.828125,26.85546875
1508290498.0172515,-23.92578125,32.2265625,31.25,57.6171875,57.12890625
1508290498.0211577,-27.83203125,35.64453125,36.1328125,16.6015625,10.25390625
1508290498.025064,-38.57421875,39.55078125,33.69140625,-9.765625,-6.34765625
1508290498.0289702,-35.15625,34.66796875,25.390625,26.85546875,14.6484375
1508290498.0328765,-25.390625,32.2265625,21.97265625,59.08203125,24.90234375
1508290498.0367827,-28.80859375,38.57421875,33.69140625,18.5546875,15.625
1508290498.040689,-36.62109375,40.52734375,34.66796875,-22.94921875,-15.625
1508290498.0445952,-36.1328125,39.0625,30.2734375,17.08984375,-2.9296875
1508290498.0485015,-35.64453125,39.55078125,33.203125,47.36328125,12.20703125
1508290498.0524077,-32.2265625,34.1796875,41.015625,35.15625,32.2265625
1508290498.056314,-47.8515625,34.1796875,36.62109375,-8.30078125,54.6875
1508290498.073392,-62.01171875,41.015625,26.3671875,3.90625,52.734375
1508290498.0772982,-26.85546875,42.96875,28.3203125,49.31640625,52.734375
1508290498.0812044,-21.97265625,42.96875,28.3203125,36.1328125,81.54296875
1508290498.0851107,-44.921875,42.48046875,30.76171875,-3.41796875,67.3828125
1508290498.089017,-51.26953125,41.50390625,36.1328125,-18.5546875,23.4375
1508290498.0929232,-30.2734375,46.38671875,41.9921875,41.015625,11.71875
1508290498.0968294,-9.765625,47.8515625,39.0625,57.12890625,34.1796875
1508290498.1007357,-23.4375,43.9453125,38.57421875,15.625,23.92578125
1508290498.104642,-28.80859375,43.9453125,41.9921875,-12.20703125,0.0
1508290498.1085482,-12.20703125,41.9921875,42.48046875,15.13671875,13.671875
1508290498.1124544,-26.85546875,39.0625,41.015625,42.96875,24.90234375
1508290498.1163607,-45.8984375,37.59765625,38.0859375,41.015625,49.8046875
1508290498.1184406,-42.48046875,38.57421875,40.52734375,6.34765625,41.50390625
1508290498.1223469,-43.45703125,38.57421875,33.69140625,11.71875,4.39453125
1508290498.1262531,-29.78515625,37.109375,28.3203125,28.80859375,2.9296875
1508290498.1301594,-24.4140625,37.109375,31.73828125,20.01953125,31.25
1508290498.1340656,-38.57421875,37.109375,40.0390625,-11.23046875,28.80859375
1508290498.1379719,-29.78515625,37.59765625,42.48046875,-13.671875,-21.484375
1508290498.1418781,-0.9765625,39.55078125,38.57421875,32.2265625,1.953125
1508290498.1457844,1.953125,41.015625,35.15625,44.921875,71.77734375
1508290498.1496906,-27.83203125,39.55078125,36.1328125,0.9765625,34.1796875
1508290498.1535969,-47.36328125,35.64453125,41.015625,-45.8984375,-60.546875
1508290498.1575031,-38.0859375,31.73828125,38.0859375,13.18359375,-26.3671875
1508290498.1614094,-22.4609375,32.71484375,38.0859375,70.3125,44.43359375
1508290498.163453,-26.85546875,32.71484375,41.9921875,15.625,12.6953125
1508290498.1673594,-42.48046875,28.3203125,47.8515625,-32.2265625,-12.20703125
1508290498.1712656,-12.6953125,33.203125,43.45703125,36.62109375,33.69140625
1508290498.1751719,2.9296875,35.15625,42.96875,82.51953125,30.2734375
1508290498.179078,13.671875,38.57421875,44.43359375,42.96875,18.5546875
1508290498.1829844,15.625,42.48046875,44.921875,-2.44140625,25.390625
1508290498.1868906,-18.06640625,39.55078125,50.29296875,20.5078125,12.6953125
1508290498.1907969,-2.9296875,36.62109375,47.8515625,85.9375,47.36328125
1508290498.194703,20.99609375,36.62109375,48.33984375,76.171875,24.4140625
1508290498.1986094,4.39453125,37.109375,51.7578125,27.83203125,-30.2734375
1508290498.2025156,-1.46484375,35.15625,47.8515625,44.43359375,-11.23046875
1508290498.2064219,22.4609375,35.64453125,48.33984375,83.49609375,-20.01953125
1508290498.208485,23.92578125,36.62109375,47.36328125,83.49609375,-11.71875
1508290498.2123911,6.8359375,37.59765625,41.9921875,51.26953125,28.80859375
1508290498.2162974,9.27734375,38.57421875,41.50390625,23.92578125,16.6015625
1508290498.2202036,25.87890625,40.52734375,39.0625,67.87109375,-12.6953125
1508290498.22411,11.71875,40.52734375,34.66796875,89.35546875,0.0
1508290498.2280161,10.7421875,38.57421875,43.45703125,58.10546875,5.37109375
1508290498.2319224,-1.953125,39.55078125,46.875,14.6484375,-12.20703125
1508290498.2358286,-7.8125,40.0390625,38.57421875,41.9921875,-28.80859375
1508290498.239735,24.90234375,39.55078125,40.0390625,64.94140625,-63.4765625
1508290498.2436411,18.06640625,41.50390625,37.109375,48.33984375,-17.08984375
1508290498.2475474,-8.7890625,42.96875,32.2265625,34.1796875,20.5078125
1508290498.2514536,4.8828125,40.52734375,32.2265625,42.96875,3.90625
1508290498.2685266,31.73828125,41.015625,31.25,82.03125,4.8828125
1508290498.2724328,16.11328125,43.9453125,27.34375,76.171875,-5.859375
1508290498.276339,0.0,44.921875,32.2265625,17.08984375,0.48828125
1508290498.2802453,20.5078125,43.45703125,38.57421875,2.44140625,5.859375
1508290498.2841516,31.25,40.52734375,38.0859375,61.5234375,7.8125
1508290498.2880578,20.99609375,39.55078125,41.50390625,74.21875,7.8125
1508290498.291964,-4.39453125,38.0859375,44.921875,19.53125,8.30078125
1508290498.2958703,-7.8125,37.59765625,47.36328125,-8.7890625,-35.64453125
1508290498.2997766,0.9765625,36.1328125,38.57421875,51.26953125,-35.15625
1508290498.3036828,7.32421875,35.64453125,34.66796875,81.0546875,49.31640625
1508290498.307589,7.8125,36.1328125,42.48046875,57.12890625,36.62109375
1508290498.3114953,-5.859375,36.62109375,45.8984375,25.87890625,6.8359375
1508290498.2985518,2.9296875,36.1328125,47.36328125,37.109375,30.2734375
1508290498.302458,10.25390625,32.71484375,46.875,76.66015625,60.546875
1508290498.3063643,29.296875,33.203125,49.8046875,70.3125,51.26953125
1508290498.3102705,15.13671875,36.62109375,50.78125,12.20703125,12.20703125
1508290498.3141768,-11.23046875,38.0859375,49.31640625,13.671875,-27.34375
1508290498.318083,20.01953125,34.66796875,47.8515625,73.73046875,16.11328125
1508290498.3219893,24.4140625,33.203125,47.8515625,80.56640625,82.03125
1508290498.3258955,-1.953125,34.1796875,51.26953125,18.5546875,26.85546875
1508290498.3298018,-6.34765625,35.15625,52.24609375,20.01953125,31.73828125
1508290498.333708,15.625,34.66796875,46.38671875,75.1953125,88.8671875
1508290498.3376143,26.85546875,34.1796875,41.50390625,77.63671875,63.4765625
1508290498.3415205,12.20703125,38.0859375,44.921875,32.71484375,26.85546875
1508290498.3435795,-12.20703125,41.9921875,43.9453125,-4.39453125,15.13671875
1508290498.3474858,2.44140625,40.0390625,40.52734375,48.828125,34.1796875
1508290498.351392,15.625,38.0859375,39.0625,67.87109375,47.36328125
1508290498.3552983,0.48828125,40.52734375,38.57421875,41.015625,62.98828125
1508290498.3592045,-6.34765625,40.0390625,41.50390625,8.7890625,58.10546875
1508290498.3631108,11.71875,41.015625,42.48046875,33.203125,84.47265625
1508290498.367017,17.08984375,41.50390625,41.9921875,62.01171875,73.73046875
1508290498.3709233,13.18359375,41.015625,43.9453125,47.8515625,3.41796875
1508290498.3748295,0.48828125,43.9453125,38.57421875,4.8828125,-4.8828125
1508290498.3787358,-20.01953125,43.45703125,36.62109375,-5.859375,-7.8125
1508290498.382642,-10.7421875,38.57421875,35.15625,61.03515625,20.01953125
1508290498.3865483,4.8828125,36.1328125,29.296875,67.87109375,0.48828125
1508290498.3886116,-11.71875,36.62109375,34.1796875,-1.953125,-2.44140625
1508290498.3925178,-19.04296875,41.50390625,39.0625,-23.92578125,20.5078125
1508290498.396424,6.8359375,41.50390625,35.15625,35.15625,-1.953125
1508290498.4003303,-4.8828125,38.57421875,28.3203125,31.73828125,16.6015625
1508290498.4042366,-22.4609375,39.55078125,25.390625,-5.37109375,44.921875
1508290498.4081428,-33.69140625,41.9921875,32.71484375,-24.90234375,-5.37109375
1508290498.412049,-23.92578125,41.9921875,36.1328125,5.37109375,-41.015625
1508290498.4159553,0.48828125,40.0390625,29.296875,52.24609375,7.32421875
1508290498.4198616,-4.8828125,38.0859375,24.4140625,51.7578125,37.59765625
1508290498.4237678,-26.85546875,40.52734375,28.80859375,-5.37109375,15.13671875
1508290498.427674,-20.5078125,42.96875,32.71484375,4.39453125,-1.46484375
1508290498.4315803,5.37109375,39.55078125,33.203125,47.36328125,-3.90625
1508290498.4481537,5.37109375,38.0859375,33.69140625,45.8984375,41.015625
1508290498.45206,-20.01953125,37.109375,37.109375,-10.25390625,73.2421875
1508290498.4559662,-26.3671875,38.57421875,38.57421875,-13.671875,45.8984375
1508290498.4598725,-10.7421875,42.48046875,33.69140625,35.64453125,27.34375
1508290498.4637787,-7.8125,40.0390625,30.2734375,45.8984375,42.48046875
1508290498.467685,-15.13671875,42.48046875,35.15625,1.46484375,56.15234375
1508290498.4715912,-19.53125,48.33984375,38.57421875,-26.3671875,57.12890625
1508290498.4754975,-29.78515625,44.43359375,34.66796875,21.484375,46.875
1508290498.4794037,-21.484375,41.9921875,36.62109375,40.52734375,29.78515625
1508290498.48331,-34.1796875,46.38671875,44.43359375,1.46484375,49.31640625
1508290498.4872162,-53.22265625,45.8984375,42.48046875,-47.8515625,68.84765625
1508290498.4911225,-33.203125,46.38671875,36.1328125,-15.13671875,47.8515625
1508290498.4933445,-33.203125,44.43359375,33.203125,25.390625,6.8359375
1508290498.4972508,-33.203125,43.9453125,34.1796875,-4.39453125,-23.4375
1508290498.501157,-38.0859375,45.8984375,40.52734375,-51.7578125,7.8125
1508290498.5050633,-59.5703125,43.45703125,41.50390625,-32.2265625,-5.37109375
1508290498.5089695,-34.1796875,43.9453125,41.015625,22.94921875,-18.06640625
1508290498.5128758,-23.92578125,45.41015625,42.48046875,20.99609375,-1.46484375
1508290498.516782,-52.734375,41.9921875,40.52734375,-30.2734375,11.23046875
1508290498.5206883,-52.24609375,38.57421875,36.62109375,-34.1796875,-3.90625
1508290498.5245945,-30.76171875,38.57421875,35.15625,16.11328125,0.0
1508290498.5285008,-33.203125,39.0625,32.71484375,29.296875,-1.953125
1508290498.532407,-29.78515625,39.55078125,29.78515625,-13.18359375,-2.9296875
1508290498.5363133,-41.9921875,40.0390625,35.15625,-24.4140625,-34.1796875
1508290498.5388567,-53.22265625,39.55078125,38.0859375,26.85546875,-41.9921875
1508290498.542763,-36.62109375,36.62109375,40.0390625,42.96875,7.8125
1508290498.5466692,-42.48046875,32.2265625,42.96875,25.87890625,28.80859375
1508290498.5505755,-46.875,34.1796875,42.48046875,-3.90625,11.23046875
1508290498.5544817,-25.87890625,40.52734375,41.015625,22.4609375,16.6015625
1508290498.558388,-4.39453125,40.0390625,43.45703125,52.24609375,37.59765625
1508290498.5622942,-19.53125,38.0859375,44.921875,23.92578125,19.53125
1508290498.5662005,-42.96875,40.52734375,46.38671875,-1.46484375,33.203125
1508290498.5701067,-35.64453125,39.55078125,48.828125,-1.953125,-13.671875
1508290498.574013,-12.6953125,41.9921875,43.9453125,28.80859375,-12.20703125
1508290498.5779192,-15.625,41.50390625,37.109375,51.26953125,22.94921875
1508290498.5818255,-35.64453125,37.59765625,42.48046875,14.16015625,6.34765625
1508290498.583428,-37.109375,38.57421875,42.96875,0.9765625,29.296875
1508290498.5873342,-8.30078125,38.57421875,38.0859375,59.5703125,20.5078125
1508290498.5912404,5.37109375,37.109375,38.0859375,81.0546875,44.43359375
1508290498.5951467,-15.625,37.59765625,34.1796875,17.578125,46.875
1508290498.599053,-26.85546875,41.015625,30.2734375,-13.671875,31.25
1508290498.6029592,-17.578125,41.50390625,34.66796875,40.0390625,74.70703125
1508290498.6068654,-8.7890625,41.015625,32.71484375,55.17578125,33.69140625
1508290498.6107717,-16.11328125,42.48046875,30.2734375,27.83203125,20.01953125
1508290498.614678,-24.90234375,43.45703125,37.109375,-15.13671875,-11.71875
1508290498.6185842,-24.90234375,40.52734375,30.76171875,17.08984375,-14.16015625
1508290498.6224904,-29.78515625,36.62109375,22.94921875,66.89453125,50.78125
1508290498.6263967,-20.01953125,36.62109375,25.390625,47.36328125,14.16015625
1508290498.6284413,-37.109375,36.1328125,29.296875,8.7890625,25.87890625
1508290498.6323476,-45.41015625,29.78515625,30.2734375,20.01953125,67.87109375
1508290498.6362538,-4.8828125,24.90234375,30.2734375,62.98828125,25.87890625
1508290498.64016,-2.44140625,28.3203125,29.78515625,55.6640625,-11.23046875
1508290498.6440663,-31.73828125,30.2734375,28.80859375,13.18359375,10.25390625
1508290498.6479726,-28.3203125,31.73828125,30.76171875,9.27734375,38.0859375
1508290498.6518788,-8.7890625,28.80859375,27.34375,60.546875,54.6875
1508290498.655785,-2.9296875,23.92578125,27.83203125,53.22265625,11.71875
1508290498.6596913,-22.94921875,29.296875,29.78515625,-1.953125,-28.80859375
1508290498.6635976,-39.0625,35.64453125,24.4140625,-10.25390625,-35.15625
1508290498.6675038,-38.0859375,31.73828125,23.92578125,41.015625,-38.57421875
1508290498.67141,-33.69140625,25.87890625,20.99609375,56.640625,-2.44140625
1508290498.673472,-35.15625,28.80859375,23.92578125,27.34375,22.94921875
1508290498.6773782,-59.08203125,34.66796875,28.80859375,-9.27734375,55.17578125
1508290498.6812844,-62.01171875,34.66796875,32.2265625,18.5546875,11.71875
1508290498.6851907,-41.50390625,33.69140625,32.2265625,70.80078125,-5.859375
1508290498.689097,-36.1328125,33.203125,28.80859375,42.48046875,37.109375
1508290498.6930032,-53.22265625,34.66796875,28.80859375,-11.71875,0.48828125
1508290498.6969094,-62.01171875,36.1328125,30.76171875,-12.20703125,-24.4140625
1508290498.7008157,-44.43359375,34.66796875,28.80859375,14.16015625,-35.64453125
1508290498.704722,-39.55078125,33.203125,26.3671875,15.625,19.53125
1508290498.7086282,-65.4296875,39.55078125,31.25,-2.9296875,22.94921875
1508290498.7125344,-77.1484375,43.9453125,32.2265625,-38.0859375,-6.8359375
1508290498.7164407,-52.24609375,43.9453125,26.3671875,19.04296875,35.64453125
1508290498.7185044,-34.66796875,45.41015625,25.87890625,44.43359375,41.015625
1508290498.7224107,-53.7109375,41.50390625,25.87890625,-20.99609375,-4.8828125
1508290498.726317,-89.35546875,40.0390625,31.25,-47.8515625,-2.9296875
1508290498.7302232,-79.58984375,42.96875,36.1328125,-9.27734375,7.32421875
1508290498.7341294,-69.82421875,40.0390625,32.2265625,35.64453125,-1.953125
1508290498.7380357,-61.03515625,38.57421875,35.64453125,7.8125,-13.18359375
1508290498.741942,-71.77734375,44.43359375,40.0390625,-57.6171875,-22.4609375
1508290498.7458482,-92.28515625,45.8984375,36.1328125,-52.24609375,11.23046875
1508290498.7497544,-66.40625,45.8984375,24.4140625,18.06640625,28.80859375
1508290498.7536607,-60.05859375,44.43359375,18.5546875,10.25390625,19.53125
1508290498.757567,-87.40234375,43.9453125,23.4375,-56.15234375,44.43359375
1508290498.7614732,-93.75,43.45703125,25.87890625,-52.24609375,20.99609375
1508290498.7640386,-70.3125,41.50390625,22.4609375,-5.37109375,-3.90625
1508290498.7679448,-66.89453125,42.96875,20.99609375,3.41796875,-4.8828125
1508290498.771851,-80.56640625,46.875,20.5078125,-47.36328125,-34.1796875
1508290498.7757573,-84.47265625,44.921875,25.87890625,-72.75390625,-67.3828125
1508290498.7796636,-64.94140625,42.96875,28.80859375,-6.34765625,-84.9609375
1508290498.7835698,-63.96484375,43.45703125,30.76171875,5.859375,-50.78125
1508290498.787476,-80.56640625,43.9453125,34.66796875,-50.78125,-31.73828125
1508290498.7913823,-84.47265625,43.9453125,31.25,-86.9140625,-45.8984375
1508290498.7952886,-79.58984375,42.48046875,29.78515625,-40.0390625,-20.5078125
1508290498.7991948,-72.265625,43.45703125,36.62109375,-5.37109375,-32.71484375
1508290498.803101,-73.2421875,48.828125,40.52734375,-21.484375,-76.171875
1508290498.8070073,-99.12109375,49.31640625,39.55078125,-57.6171875,-77.1484375
1508290498.823581,-90.33203125,48.33984375,37.59765625,-54.19921875,-89.35546875
1508290498.8274872,-56.640625,46.875,38.0859375,-2.44140625,-96.6796875
1508290498.8313935,-52.734375,46.38671875,39.55078125,8.7890625,-93.26171875
1508290498.8352997,-75.68359375,46.875,36.1328125,-47.8515625,-74.21875
1508290498.839206,-90.8203125,46.38671875,31.73828125,-69.82421875,-65.91796875
1508290498.8431122,-58.59375,48.33984375,37.109375,-16.6015625,-92.28515625
1508290498.8470185,-50.78125,47.8515625,37.59765625,-14.16015625,-123.53515625
1508290498.8509247,-62.5,44.921875,28.80859375,-43.9453125,-74.70703125
1508290498.854831,-52.734375,46.38671875,33.203125,-59.08203125,-84.47265625
1508290498.8587372,-45.8984375,45.8984375,34.1796875,-20.99609375,-129.39453125
1508290498.8626435,-38.0859375,43.9453125,28.3203125,5.859375,-111.328125
1508290498.8665497,-44.921875,44.921875,36.62109375,-2.9296875,-83.0078125
1508290498.8681319,-57.12890625,42.48046875,45.41015625,-43.9453125,-70.80078125
1508290498.8720381,-44.43359375,40.0390625,44.921875,-28.80859375,-63.96484375
1508290498.8759444,-31.73828125,41.9921875,40.0390625,19.04296875,-42.96875
1508290498.8798506,-33.69140625,42.96875,38.0859375,14.16015625,-43.45703125
1508290498.8837569,-40.52734375,47.36328125,40.0390625,-28.80859375,-37.109375
1508290498.8876631,-35.64453125,50.78125,41.9921875,-20.5078125,-29.78515625
1508290498.8915694,-17.578125,52.24609375,43.45703125,22.94921875,-43.45703125
1508290498.8954756,-20.01953125,49.31640625,39.55078125,29.78515625,-41.50390625
1508290498.8993819,-49.8046875,51.7578125,34.66796875,-16.6015625,-94.7265625
1508290498.9032881,-36.1328125,60.546875,37.59765625,-61.03515625,-125.0
1508290498.9071944,-18.06640625,57.6171875,34.1796875,-19.04296875,-53.7109375
1508290498.9111006,-20.99609375,52.24609375,31.25,18.5546875,-46.875
1508290498.913687,-27.83203125,53.22265625,37.109375,-14.6484375,-84.9609375
1508290498.9175932,-43.45703125,52.734375,40.52734375,-51.26953125,-111.81640625
1508290498.9214995,-34.1796875,49.31640625,32.71484375,-12.20703125,-104.4921875
1508290498.9254057,-17.08984375,50.29296875,30.2734375,32.2265625,-88.37890625
1508290498.929312,-9.27734375,50.78125,38.0859375,10.7421875,-115.234375
1508290498.9332182,-23.92578125,50.29296875,41.50390625,-22.4609375,-136.71875
1508290498.9371245,-24.90234375,52.24609375,35.64453125,2.9296875,-148.4375
1508290498.9410307,-2.44140625,50.78125,31.73828125,36.62109375,-139.16015625
1508290498.944937,5.859375,51.7578125,32.2265625,25.390625,-119.140625
1508290498.9488432,-4.39453125,55.17578125,31.73828125,-21.97265625,-102.05078125
1508290498.9527495,-27.83203125,51.7578125,23.4375,-12.6953125,-84.47265625
1508290498.9566557,-9.27734375,47.36328125,24.4140625,45.41015625,-108.3984375
1508290498.9581969,19.53125,43.9453125,29.296875,52.24609375,-78.61328125
1508290498.9621031,-4.8828125,41.9921875,30.76171875,-10.25390625,-55.17578125
1508290498.9660094,-39.0625,43.9453125,32.2265625,-28.80859375,-80.078125
1508290498.9699156,-26.3671875,44.43359375,30.2734375,29.296875,-76.66015625
1508290498.9738219,-9.765625,43.45703125,26.3671875,57.6171875,-102.05078125
1508290498.9777281,-19.04296875,41.9921875,26.85546875,20.5078125,-100.5859375
1508290498.9816344,-10.7421875,44.43359375,35.64453125,-30.76171875,-108.3984375
1508290498.9855406,-3.90625,43.9453125,40.0390625,11.23046875,-118.65234375
1508290498.9894469,-4.8828125,38.0859375,41.9921875,47.8515625,-83.984375
1508290498.9933531,7.8125,39.0625,40.52734375,32.71484375,-64.94140625
1508290498.9972594,-12.6953125,40.0390625,39.0625,5.859375,-88.37890625
1508290499.0011656,-9.765625,41.50390625,37.59765625,14.16015625,-86.9140625
1508290499.0032265,27.83203125,46.38671875,33.69140625,57.12890625,-63.96484375
1508290499.0071328,38.0859375,49.8046875,31.25,45.41015625,-77.1484375
1508290499.011039,-5.37109375,49.8046875,34.1796875,-3.41796875,-94.23828125
1508290499.0149453,-26.3671875,50.78125,38.0859375,-9.27734375,-63.96484375
1508290499.0188515,-0.9765625,52.734375,35.64453125,33.203125,-65.4296875
1508290499.0227578,-5.859375,52.24609375,37.109375,46.38671875,-91.796875
1508290499.026664,-31.25,49.8046875,38.0859375,-2.44140625,-75.1953125
1508290499.0305703,-38.57421875,51.26953125,38.57421875,-41.015625,-117.1875
1508290499.0344765,-22.4609375,54.19921875,36.1328125,2.9296875,-121.58203125
1508290499.0383828,-20.01953125,50.78125,30.76171875,28.80859375,-62.98828125
1508290499.042289,-32.71484375,51.7578125,33.69140625,2.9296875,-73.73046875
1508290499.0461953,-33.203125,53.7109375,38.57421875,-40.0390625,-117.67578125
1508290499.0482607,-12.20703125,51.7578125,40.0390625,-12.6953125,-105.46875
1508290499.052167,-5.37109375,51.26953125,34.66796875,37.109375,-49.31640625
1508290499.0560732,-13.18359375,49.8046875,34.1796875,16.6015625,-90.8203125
1508290499.0599794,-22.94921875,49.8046875,38.57421875,-35.64453125,-106.93359375
1508290499.0638857,-39.0625,51.7578125,42.96875,-23.4375,-78.125
1508290499.067792,-31.73828125,50.78125,47.36328125,9.765625,-94.23828125
1508290499.0716982,-32.71484375,52.24609375,47.36328125,7.8125,-97.16796875
1508290499.0756044,-49.8046875,50.78125,48.828125,-53.7109375,-105.95703125
1508290499.0795107,-51.26953125,50.78125,50.29296875,-66.40625,-93.26171875
1508290499.083417,-30.76171875,52.734375,44.921875,10.7421875,-84.9609375
1508290499.0873232,-27.34375,53.22265625,42.48046875,17.578125,-118.65234375
1508290499.0912294,-75.68359375,59.5703125,48.828125,-59.5703125,-122.0703125
1508290499.093292,-110.3515625,59.5703125,55.17578125,-107.91015625,-109.375
1508290499.0971982,-110.3515625,55.6640625,51.7578125,-77.63671875,-101.5625
1508290499.1011045,-109.86328125,57.12890625,52.24609375,-76.66015625,-92.7734375
1508290499.1050107,-119.140625,66.89453125,54.19921875,-107.91015625,-86.9140625
1508290499.108917,-154.78515625,71.77734375,49.8046875,-151.3671875,-44.43359375
1508290499.1128232,-170.41015625,69.82421875,50.29296875,-147.4609375,-58.10546875
1508290499.1167295,-144.04296875,66.89453125,50.29296875,-124.51171875,-84.9609375
1508290499.1206357,-150.87890625,65.91796875,47.36328125,-145.01953125,-63.96484375
1508290499.124542,-191.89453125,68.359375,50.29296875,-189.94140625,-47.8515625
1508290499.1284482,-191.40625,66.89453125,53.22265625,-154.78515625,-64.94140625
1508290499.1323545,-175.78125,65.91796875,48.33984375,-109.86328125,-67.87109375
1508290499.1362607,-184.08203125,65.4296875,48.33984375,-133.7890625,-69.82421875
1508290499.1383245,-189.453125,67.3828125,48.828125,-154.296875,-76.171875
1508290499.1422307,-178.22265625,66.89453125,51.7578125,-159.1796875,-72.75390625
1508290499.146137,-151.3671875,63.4765625,47.36328125,-86.42578125,-78.125
1508290499.1500432,-126.953125,65.4296875,44.43359375,-53.7109375,-54.19921875
1508290499.1539495,-135.7421875,64.94140625,50.29296875,-107.91015625,-58.10546875
1508290499.1578557,-117.1875,62.5,45.41015625,-115.72265625,-123.046875
1508290499.161762,-77.63671875,62.01171875,44.43359375,-59.08203125,-169.921875
1508290499.1656682,-76.171875,57.12890625,42.96875,-30.76171875,-125.0
1508290499.1695745,-75.68359375,57.12890625,37.59765625,-10.7421875,-96.19140625
1508290499.1734807,-67.3828125,56.15234375,41.9921875,-38.0859375,-106.93359375
1508290499.177387,-46.38671875,49.8046875,44.43359375,-25.390625,-130.37109375
1508290499.1812932,-18.5546875,51.26953125,41.015625,49.8046875,-107.421875
1508290499.2133815,-15.13671875,50.78125,36.1328125,50.29296875,-46.38671875
1508290499.2172878,-16.11328125,51.26953125,35.64453125,-3.41796875,-55.6640625
1508290499.221194,-0.9765625,50.29296875,36.62109375,10.25390625,-54.6875
1508290499.2251003,31.25,47.8515625,36.62109375,77.63671875,-80.56640625
1508290499.2290065,20.5078125,48.828125,37.109375,93.75,-43.9453125
1508290499.2329128,-4.39453125,50.78125,43.9453125,43.9453125,-44.43359375
1508290499.236819,12.6953125,51.7578125,45.8984375,26.3671875,-88.37890625
1508290499.2407253,41.9921875,50.29296875,39.0625,86.42578125,-39.0625
1508290499.2446315,42.96875,47.8515625,38.0859375,125.0,-59.5703125
1508290499.2485378,26.85546875,49.31640625,42.96875,81.0546875,-75.1953125
1508290499.252444,20.5078125,52.734375,41.015625,27.34375,-86.9140625
1508290499.2563503,26.3671875,54.19921875,35.64453125,82.03125,-66.89453125
1508290499.2433963,46.38671875,53.7109375,35.15625,118.1640625,-49.8046875
1508290499.2473025,52.734375,52.734375,40.0390625,94.23828125,-75.68359375
1508290499.2512088,23.92578125,53.7109375,41.015625,54.19921875,-82.51953125
1508290499.255115,22.94921875,51.7578125,37.109375,83.984375,-68.359375
1508290499.2590213,52.24609375,48.33984375,38.57421875,145.5078125,-65.4296875
1508290499.2629275,41.50390625,48.828125,41.015625,126.46484375,-51.7578125
1508290499.2668338,22.94921875,50.78125,40.0390625,58.10546875,-38.0859375
1508290499.27074,23.92578125,52.24609375,37.109375,61.03515625,-71.77734375
1508290499.2746463,48.828125,55.17578125,38.57421875,131.8359375,-84.47265625
1508290499.2785525,67.87109375,54.19921875,40.52734375,135.7421875,-43.9453125
1508290499.2824588,49.31640625,53.7109375,42.48046875,89.35546875,-23.4375
1508290499.286365,38.0859375,57.12890625,46.875,75.1953125,-15.13671875
1508290499.2884293,59.5703125,56.15234375,48.33984375,125.0,-4.8828125
1508290499.2923355,71.2890625,55.17578125,45.41015625,132.8125,0.0
1508290499.2962418,50.78125,58.59375,39.55078125,95.703125,-11.71875
1508290499.300148,27.83203125,61.03515625,36.1328125,76.171875,-29.78515625
1508290499.3040543,44.43359375,62.5,39.55078125,100.09765625,-8.30078125
1508290499.3079605,59.08203125,61.5234375,42.96875,125.48828125,22.4609375
1508290499.3118668,57.6171875,62.01171875,39.0625,99.609375,22.94921875
1508290499.315773,35.15625,64.453125,40.52734375,54.6875,-36.1328125
1508290499.3196793,19.04296875,64.453125,45.8984375,60.546875,-58.10546875
1508290499.3235855,50.29296875,64.453125,42.48046875,103.02734375,-17.08984375
1508290499.3274918,45.41015625,61.03515625,34.66796875,104.98046875,7.8125
1508290499.331398,18.5546875,57.12890625,41.50390625,72.265625,-1.953125
1508290499.333481,12.20703125,59.08203125,45.41015625,58.59375,-20.5078125
1508290499.3373873,22.94921875,60.546875,37.59765625,90.8203125,6.8359375
1508290499.3412936,36.1328125,59.5703125,32.71484375,100.09765625,20.99609375
1508290499.3451998,27.83203125,58.59375,34.66796875,54.6875,-32.71484375
1508290499.349106,17.08984375,58.10546875,36.1328125,32.2265625,-52.24609375
1508290499.3530123,29.78515625,59.08203125,39.55078125,99.609375,-34.66796875
1508290499.3569186,35.64453125,56.640625,38.57421875,116.2109375,11.71875
1508290499.3608248,23.4375,56.640625,36.1328125,75.1953125,10.25390625
1508290499.364731,7.8125,58.59375,39.55078125,32.2265625,-14.16015625
1508290499.3686373,17.578125,55.17578125,37.59765625,59.08203125,7.8125
1508290499.3725436,42.96875,53.22265625,41.015625,105.95703125,5.37109375
1508290499.3764498,36.1328125,52.24609375,47.8515625,79.58984375,-28.3203125
1508290499.378492,15.625,56.15234375,49.31640625,19.53125,-55.17578125
1508290499.3823984,7.8125,56.15234375,45.8984375,35.64453125,-26.85546875
1508290499.3863046,25.87890625,55.6640625,41.50390625,105.95703125,4.8828125
1508290499.3902109,26.3671875,58.59375,41.9921875,96.6796875,-2.44140625
1508290499.394117,16.11328125,57.12890625,43.9453125,31.25,-2.44140625
1508290499.3980234,23.92578125,57.12890625,42.48046875,22.94921875,-20.01953125
1508290499.4019296,13.671875,59.08203125,39.55078125,77.63671875,-30.2734375
1508290499.4058359,13.18359375,56.15234375,39.0625,84.9609375,-62.01171875
1508290499.409742,11.23046875,52.24609375,39.55078125,26.85546875,-48.828125
1508290499.4136484,-0.9765625,53.22265625,40.0390625,13.18359375,-11.23046875
1508290499.4175546,19.04296875,53.7109375,38.0859375,71.77734375,-23.4375
1508290499.4214609,28.3203125,52.734375,34.66796875,91.796875,-10.7421875
1508290499.4235244,7.32421875,53.7109375,37.109375,71.77734375,-26.85546875
1508290499.4274306,0.9765625,53.7109375,35.64453125,35.64453125,8.7890625
1508290499.4313369,12.6953125,52.734375,30.2734375,43.45703125,18.5546875
1508290499.4352431,18.5546875,51.7578125,33.69140625,65.4296875,-5.859375
1508290499.4391494,10.7421875,49.8046875,35.15625,70.3125,5.859375
1508290499.4430556,0.48828125,50.78125,36.62109375,23.4375,-41.015625
1508290499.4469619,1.953125,51.26953125,39.0625,35.15625,-43.9453125
1508290499.4508681,21.484375,51.26953125,40.0390625,68.359375,-52.734375
1508290499.4547744,26.85546875,51.7578125,36.62109375,55.17578125,-23.4375
1508290499.4586806,-9.27734375,52.734375,32.71484375,32.2265625,-17.578125
1508290499.4625869,-22.94921875,52.734375,34.66796875,12.20703125,-64.94140625
1508290499.4664931,0.48828125,49.8046875,32.71484375,66.40625,-38.0859375
1508290499.468559,19.53125,50.29296875,32.2265625,88.37890625,-27.34375
1508290499.4724653,4.39453125,49.31640625,33.69140625,44.921875,-21.97265625
1508290499.4763715,-22.94921875,49.31640625,31.73828125,2.44140625,4.8828125
1508290499.4802778,0.9765625,49.31640625,34.1796875,52.24609375,-5.859375
1508290499.484184,28.80859375,47.36328125,37.109375,89.35546875,-18.06640625
1508290499.4880903,11.23046875,49.31640625,38.57421875,54.6875,-29.296875
1508290499.4919965,-8.7890625,49.8046875,42.96875,16.6015625,-41.50390625
1508290499.4959028,12.20703125,48.828125,45.41015625,32.2265625,-15.13671875
1508290499.499809,19.53125,45.8984375,36.1328125,66.89453125,8.7890625
1508290499.5037153,6.34765625,48.828125,30.2734375,81.0546875,-12.6953125
1508290499.5076215,-7.8125,54.6875,37.59765625,25.390625,-27.34375
1508290499.5115278,-12.20703125,49.8046875,44.921875,-6.34765625,2.44140625
1508290499.5285997,4.39453125,46.875,41.9921875,64.453125,37.59765625
1508290499.532506,17.08984375,49.8046875,40.52734375,64.453125,41.015625
1508290499.5364122,-7.8125,50.78125,40.52734375,18.5546875,56.15234375
1508290499.5403185,-23.92578125,50.78125,42.96875,10.25390625,20.01953125
1508290499.5442247,-6.34765625,48.33984375,41.50390625,43.9453125,-6.34765625
1508290499.548131,-5.859375,43.45703125,40.0390625,74.21875,13.18359375
1508290499.5520372,0.9765625,45.8984375,45.41015625,28.3203125,-40.52734375
1508290499.5559435,-19.04296875,51.7578125,34.1796875,-33.69140625,-48.828125
1508290499.5598497,-20.5078125,50.78125,24.90234375,17.578125,-33.203125
1508290499.563756,1.46484375,46.38671875,34.1796875,62.98828125,-63.96484375
1508290499.5676622,0.48828125,43.9453125,39.0625,44.43359375,-62.01171875
1508290499.5715685,-11.23046875,43.45703125,37.109375,-0.9765625,-48.828125
1508290499.5736327,-11.71875,43.9453125,34.66796875,13.18359375,-25.390625
1508290499.577539,4.8828125,42.96875,30.76171875,50.78125,0.9765625
1508290499.5814452,10.25390625,43.9453125,28.3203125,42.48046875,15.13671875
1508290499.5853515,-18.5546875,45.8984375,29.78515625,16.11328125,20.5078125
1508290499.5892577,-27.83203125,42.96875,31.25,12.20703125,24.90234375
1508290499.593164,3.41796875,41.015625,30.76171875,33.69140625,-2.44140625
1508290499.5970702,9.27734375,44.43359375,27.34375,42.96875,1.46484375
1508290499.6009765,-25.87890625,46.875,22.4609375,24.90234375,4.39453125
1508290499.6048827,-36.62109375,43.9453125,19.04296875,-3.41796875,-8.7890625
1508290499.608789,-0.9765625,44.921875,26.85546875,19.53125,-44.43359375
1508290499.6126952,8.30078125,48.33984375,26.3671875,47.36328125,-47.36328125
1508290499.6166015,-17.578125,46.875,22.94921875,42.48046875,-12.20703125
1508290499.6331763,-14.6484375,46.875,26.85546875,-0.9765625,-4.8828125
1508290499.6370826,5.37109375,45.8984375,20.01953125,12.20703125,-0.48828125
1508290499.6409888,2.44140625,44.43359375,20.01953125,55.6640625,-37.59765625
1508290499.644895,-7.8125,44.921875,22.94921875,41.50390625,-16.11328125
1508290499.6488013,-18.5546875,45.41015625,24.90234375,-4.39453125,-21.97265625
1508290499.6527076,-15.625,46.38671875,26.85546875,10.7421875,-36.62109375
1508290499.6566138,0.9765625,44.43359375,27.34375,60.546875,21.484375
1508290499.66052,-3.41796875,41.015625,29.78515625,60.05859375,5.37109375
1508290499.6644263,-27.34375,37.59765625,34.1796875,12.6953125,-57.12890625
1508290499.6683326,-27.34375,38.0859375,38.57421875,-11.71875,-66.89453125
1508290499.6722388,-8.30078125,39.0625,35.64453125,32.71484375,-37.59765625
1508290499.676145,-2.44140625,38.0859375,33.203125,70.80078125,12.6953125
1508290499.6637,-17.578125,41.015625,38.57421875,24.4140625,-32.2265625
1508290499.6676064,-30.2734375,45.8984375,38.57421875,-29.78515625,-60.546875
1508290499.6715126,-15.625,44.43359375,32.71484375,25.390625,-0.9765625
1508290499.6754189,3.41796875,40.52734375,28.3203125,63.96484375,0.0
1508290499.679325,-3.90625,43.45703125,28.80859375,39.55078125,-15.13671875
1508290499.6832314,-29.296875,44.43359375,35.15625,6.34765625,-33.69140625
1508290499.6871376,-27.83203125,43.45703125,33.69140625,23.4375,-31.73828125
1508290499.6910439,2.9296875,43.45703125,32.2265625,67.3828125,0.0
1508290499.69495,0.48828125,42.96875,32.71484375,54.19921875,-11.23046875
1508290499.6988564,-25.87890625,42.96875,30.76171875,-3.90625,-11.23046875
1508290499.7027626,-25.87890625,42.48046875,29.78515625,12.6953125,28.3203125
1508290499.7066689,-3.41796875,38.57421875,30.2734375,63.96484375,35.15625
1508290499.7082267,12.6953125,35.64453125,31.73828125,54.6875,21.484375
1508290499.712133,-7.32421875,40.0390625,26.85546875,4.8828125,32.2265625
1508290499.7160392,-19.53125,42.48046875,22.94921875,3.41796875,17.08984375
1508290499.7199454,-5.37109375,37.59765625,28.3203125,64.94140625,-19.53125
1508290499.7238517,4.39453125,36.62109375,30.76171875,84.9609375,-8.7890625
1508290499.727758,-6.8359375,41.9921875,29.78515625,30.76171875,-15.625
1508290499.7316642,-28.80859375,42.48046875,26.85546875,-6.8359375,-22.4609375
1508290499.7355704,-12.20703125,41.015625,23.4375,54.6875,10.7421875
1508290499.7394767,8.30078125,41.50390625,24.90234375,69.82421875,22.94921875
1508290499.743383,-1.46484375,41.9921875,20.5078125,24.4140625,10.25390625
1508290499.7472892,-26.3671875,44.921875,17.578125,6.34765625,29.296875
1508290499.7511954,-7.8125,45.41015625,24.90234375,23.4375,56.640625
1508290499.768326,19.53125,41.9921875,27.83203125,66.89453125,62.5
1508290499.7722323,12.6953125,40.0390625,26.85546875,57.6171875,43.45703125
1508290499.7761385,-13.18359375,40.0390625,32.2265625,0.48828125,7.8125
1508290499.7800448,-20.99609375,40.52734375,34.1796875,3.41796875,0.0
1508290499.783951,0.48828125,38.57421875,31.25,62.5,60.546875
1508290499.7878573,21.484375,39.55078125,32.71484375,82.51953125,62.98828125
1508290499.7917635,-8.30078125,43.45703125,30.2734375,33.69140625,11.71875
1508290499.7956698,-26.85546875,40.52734375,32.2265625,-8.7890625,-41.9921875
1508290499.799576,0.48828125,40.0390625,31.25,32.2265625,-65.91796875
1508290499.8034823,-3.41796875,40.52734375,24.4140625,64.453125,-37.59765625
1508290499.8073885,-13.18359375,38.0859375,28.3203125,29.78515625,-23.4375
1508290499.8112948,-19.04296875,41.50390625,33.69140625,-11.71875,-4.39453125
1508290499.7983482,-22.4609375,41.9921875,38.0859375,30.76171875,18.5546875
1508290499.8022544,-8.7890625,37.109375,35.15625,73.73046875,29.78515625
1508290499.8061607,-6.34765625,36.1328125,30.2734375,68.84765625,59.5703125
1508290499.810067,-4.8828125,39.55078125,37.59765625,7.8125,54.6875
1508290499.8139732,12.20703125,42.96875,40.0390625,10.25390625,20.5078125
1508290499.8178794,8.7890625,40.52734375,38.57421875,74.70703125,11.23046875
