timestamp,TP9,AF7,AF8,TP10,Right AUX

1508276093573.4463,-17.578125,48.33984375,40.0390625,1.953125,-62.01171875
1508276093577.3525,14.16015625,48.828125,41.50390625,38.57421875,-51.7578125
1508276093581.2588,7.32421875,49.8046875,38.57421875,62.5,-19.53125
1508276093585.165,-29.296875,48.828125,41.015625,21.484375,-33.69140625
1508276093589.0713,-33.69140625,50.29296875,41.50390625,-19.53125,-30.76171875
1508276093592.9775,-12.6953125,48.828125,35.64453125,39.55078125,-32.71484375
1508276093596.8838,-1.46484375,45.41015625,41.015625,56.640625,-52.734375
1508276093600.79,-4.8828125,45.8984375,43.45703125,29.78515625,-15.13671875
1508276093604.6963,-23.92578125,48.33984375,44.43359375,10.7421875,-5.37109375
1508276093608.6025,-13.671875,48.828125,48.828125,8.7890625,-55.17578125
1508276093612.5088,7.8125,45.41015625,39.0625,57.12890625,-25.390625
1508276093616.415,1.46484375,41.9921875,36.1328125,73.73046875,42.48046875
1508276093618.5947,-16.11328125,44.43359375,41.015625,1.953125,8.7890625
1508276093622.501,-24.90234375,44.921875,40.52734375,-10.25390625,-52.24609375
1508276093626.4072,-10.25390625,44.43359375,39.55078125,57.6171875,0.0
1508276093630.3135,6.8359375,47.36328125,35.15625,63.96484375,-12.6953125
1508276093634.2197,-3.90625,46.875,36.1328125,13.18359375,-35.15625
1508276093638.126,-19.53125,46.38671875,42.96875,-12.20703125,2.9296875
1508276093642.0322,-14.6484375,46.875,41.015625,49.8046875,11.71875
1508276093645.9385,9.765625,45.8984375,36.62109375,82.03125,38.0859375
1508276093649.8447,-0.48828125,46.875,42.48046875,33.203125,16.11328125
1508276093653.751,-34.66796875,47.36328125,45.41015625,-22.4609375,-28.3203125
1508276093657.6572,-21.484375,43.9453125,36.1328125,28.80859375,-1.46484375
1508276093661.5635,-6.34765625,40.52734375,39.0625,73.2421875,5.859375
1508276093663.3167,-3.90625,41.50390625,43.9453125,43.9453125,-21.484375
1508276093667.223,-1.46484375,45.41015625,44.43359375,4.8828125,-12.6953125
1508276093671.1292,-4.8828125,44.43359375,39.0625,29.78515625,5.859375
1508276093675.0354,-3.90625,43.45703125,32.2265625,67.87109375,3.41796875
1508276093678.9417,5.859375,49.8046875,38.0859375,63.4765625,-5.859375
1508276093682.848,-17.578125,52.734375,45.8984375,23.4375,4.8828125
1508276093686.7542,-24.90234375,52.24609375,52.24609375,13.671875,-18.5546875
1508276093690.6604,-3.41796875,52.24609375,50.29296875,62.01171875,4.39453125
1508276093694.5667,5.37109375,56.15234375,50.78125,38.0859375,-2.44140625
1508276093698.473,-13.671875,57.6171875,53.7109375,-7.8125,-41.50390625
1508276093702.3792,-27.34375,57.12890625,45.8984375,-14.6484375,-5.859375
1508276093706.2854,-11.71875,52.734375,45.41015625,36.1328125,4.39453125
1508276093708.3484,8.7890625,48.828125,50.78125,72.265625,-10.25390625
1508276093712.2546,3.41796875,54.19921875,50.78125,38.0859375,-8.7890625
1508276093716.161,-26.85546875,54.6875,47.8515625,-9.765625,-27.83203125
1508276093720.0671,-14.16015625,54.19921875,47.8515625,37.59765625,-34.66796875
1508276093723.9734,9.765625,52.734375,50.78125,69.82421875,-8.30078125
1508276093727.8796,-7.32421875,51.26953125,50.78125,43.45703125,-9.765625
1508276093731.786,-25.390625,52.734375,49.31640625,-3.90625,3.41796875
1508276093735.6921,-20.5078125,50.29296875,49.8046875,-6.8359375,-9.765625
1508276093739.5984,8.30078125,44.43359375,48.828125,31.73828125,-10.7421875
1508276093743.5046,6.8359375,41.50390625,41.015625,43.9453125,21.484375
1508276093747.411,-27.83203125,48.33984375,41.50390625,20.5078125,16.6015625
1508276093751.3171,-18.5546875,52.24609375,44.921875,0.0,-34.66796875
1508276093753.3806,3.90625,49.8046875,42.48046875,46.875,-43.45703125
1508276093757.2869,-8.30078125,48.828125,32.71484375,59.5703125,-6.8359375
1508276093761.193,-23.4375,48.828125,32.71484375,29.78515625,2.9296875
1508276093765.0994,-20.5078125,48.33984375,41.9921875,-10.25390625,29.296875
1508276093769.0056,3.90625,49.8046875,40.52734375,28.80859375,46.875
1508276093772.9119,8.7890625,49.8046875,39.55078125,73.2421875,14.6484375
1508276093776.818,-6.8359375,46.38671875,42.96875,38.57421875,10.7421875
1508276093780.7244,-19.53125,48.828125,50.29296875,-26.3671875,5.37109375
1508276093784.6306,-19.53125,51.26953125,44.43359375,-4.8828125,11.71875
1508276093788.5369,-6.8359375,48.828125,34.1796875,69.82421875,41.9921875
1508276093792.443,7.8125,46.38671875,35.15625,60.05859375,2.44140625
1508276093796.3494,-24.90234375,41.50390625,39.0625,-7.8125,-1.46484375
1508276093813.4236,-42.96875,43.9453125,42.48046875,-8.7890625,-23.92578125
1508276093817.3298,-6.8359375,47.8515625,42.48046875,56.640625,-19.53125
1508276093821.236,3.41796875,48.33984375,41.9921875,57.6171875,9.765625
1508276093825.1423,-19.04296875,49.31640625,40.0390625,-0.48828125,6.8359375
1508276093829.0486,-39.0625,48.33984375,38.0859375,-20.5078125,-5.37109375
1508276093832.9548,-18.5546875,51.26953125,34.66796875,28.3203125,-17.578125
1508276093836.861,4.8828125,51.26953125,36.1328125,47.8515625,-28.3203125
1508276093840.7673,-10.7421875,49.31640625,43.9453125,14.6484375,-53.22265625
1508276093844.6736,-29.296875,46.38671875,38.0859375,-30.76171875,-41.9921875
1508276093848.5798,-17.578125,43.45703125,28.3203125,29.78515625,-16.11328125
1508276093852.486,-11.23046875,38.57421875,33.69140625,66.40625,-18.06640625
1508276093856.3923,-32.71484375,33.69140625,41.015625,12.6953125,3.41796875
1508276093843.4456,-37.109375,35.64453125,42.48046875,-21.484375,-12.20703125
1508276093847.3518,-0.9765625,41.015625,38.0859375,9.765625,-22.4609375
1508276093851.258,-11.23046875,40.0390625,36.62109375,42.48046875,-12.20703125
1508276093855.1643,-44.43359375,38.57421875,38.0859375,43.9453125,-3.90625
1508276093859.0706,-42.96875,40.52734375,37.59765625,3.41796875,-8.7890625
1508276093862.9768,-34.66796875,40.52734375,41.50390625,-5.37109375,-31.73828125
1508276093866.883,-14.6484375,39.0625,41.015625,48.828125,29.78515625
1508276093870.7893,-16.6015625,36.1328125,39.0625,41.015625,48.33984375
1508276093874.6956,-34.66796875,34.66796875,33.69140625,0.9765625,9.27734375
1508276093878.6018,-31.73828125,35.15625,34.1796875,-6.8359375,16.11328125
1508276093882.508,-5.37109375,33.203125,41.9921875,24.90234375,-7.32421875
1508276093886.4143,17.08984375,31.25,40.52734375,43.9453125,-3.90625
1508276093888.4766,6.34765625,31.25,35.64453125,31.73828125,23.92578125
1508276093892.3828,-36.62109375,33.203125,33.69140625,-19.53125,8.7890625
1508276093896.289,-43.45703125,33.203125,40.52734375,13.671875,-2.44140625
1508276093900.1953,-12.6953125,33.69140625,43.45703125,67.3828125,19.04296875
1508276093904.1016,-19.53125,34.66796875,36.1328125,48.33984375,44.43359375
1508276093908.0078,-32.71484375,34.1796875,41.015625,-12.20703125,2.44140625
1508276093911.914,-15.13671875,37.59765625,45.8984375,-16.11328125,-38.57421875
1508276093915.8203,-1.953125,33.203125,37.59765625,51.7578125,-4.39453125
1508276093919.7266,-0.9765625,28.80859375,32.2265625,48.828125,6.8359375
1508276093923.6328,-23.4375,29.296875,35.64453125,-18.5546875,-2.9296875
1508276093927.539,-38.0859375,30.2734375,36.1328125,-17.578125,-12.20703125
1508276093931.4453,-18.5546875,31.25,33.69140625,41.50390625,-15.625
1508276093948.2234,-5.37109375,30.76171875,38.0859375,43.9453125,-32.2265625
1508276093952.1296,-9.765625,31.25,38.0859375,1.46484375,-46.875
1508276093956.036,-27.34375,32.2265625,33.69140625,-19.53125,-48.828125
1508276093959.9421,-28.3203125,31.73828125,30.76171875,22.4609375,-18.5546875
1508276093963.8484,-24.4140625,28.80859375,29.296875,74.21875,12.6953125
1508276093967.7546,-25.390625,28.80859375,33.203125,27.83203125,-7.32421875
1508276093971.661,-25.87890625,34.1796875,35.64453125,-42.96875,-13.671875
1508276093975.5671,-22.94921875,32.71484375,31.73828125,2.44140625,8.30078125
1508276093979.4734,-14.6484375,27.83203125,31.25,41.9921875,24.4140625
1508276093983.3796,-12.20703125,30.76171875,36.62109375,7.8125,3.41796875
1508276093987.286,-16.6015625,35.64453125,39.55078125,-43.45703125,-35.15625
1508276093991.1921,-20.5078125,34.66796875,36.1328125,-14.6484375,-49.8046875
1508276093993.2756,-16.6015625,31.73828125,33.69140625,41.50390625,-10.7421875
1508276093997.182,-11.23046875,31.73828125,35.15625,55.6640625,3.41796875
1508276094001.0881,-39.55078125,33.203125,31.25,4.8828125,-29.296875
1508276094004.9944,-48.828125,35.64453125,32.2265625,-35.64453125,-22.94921875
1508276094008.9006,-19.53125,38.0859375,43.9453125,34.1796875,4.8828125
1508276094012.807,-7.8125,36.62109375,43.9453125,60.05859375,-9.765625
1508276094016.7131,-10.25390625,35.64453125,36.1328125,14.16015625,-3.90625
1508276094020.6194,-16.6015625,39.0625,35.64453125,-8.7890625,35.15625
1508276094024.5256,-26.85546875,37.109375,39.0625,8.7890625,-7.8125
1508276094028.432,-42.96875,29.78515625,36.62109375,6.34765625,-35.64453125
1508276094032.3381,-51.26953125,30.2734375,35.64453125,10.7421875,25.390625
1508276094036.2444,-70.80078125,32.2265625,43.45703125,-32.2265625,-19.53125
1508276094038.2886,-79.1015625,31.73828125,41.015625,-33.69140625,-19.04296875
1508276094042.1948,-57.12890625,33.203125,37.59765625,12.20703125,-23.92578125
1508276094046.101,-52.734375,28.3203125,35.64453125,5.859375,-47.8515625
1508276094050.0073,-71.77734375,25.390625,34.1796875,-42.48046875,-28.3203125
1508276094053.9136,-72.75390625,26.85546875,34.1796875,-43.9453125,-40.0390625
1508276094057.8198,-43.9453125,24.90234375,36.1328125,24.90234375,-16.11328125
1508276094061.726,-25.87890625,23.4375,34.66796875,22.94921875,-2.9296875
1508276094065.6323,-36.1328125,24.90234375,31.73828125,-33.203125,2.44140625
1508276094069.5386,-51.7578125,31.73828125,35.15625,-49.8046875,-31.73828125
1508276094073.4448,-28.3203125,40.0390625,29.78515625,-12.20703125,-37.59765625
1508276094077.351,-20.01953125,39.55078125,23.4375,33.69140625,14.16015625
1508276094081.2573,-26.3671875,34.66796875,30.2734375,10.7421875,-30.2734375
1508276094098.3296,-38.0859375,33.69140625,33.203125,-38.57421875,-63.96484375
1508276094102.2358,-41.015625,32.71484375,27.83203125,10.7421875,1.953125
1508276094106.142,-23.92578125,27.83203125,30.76171875,62.98828125,33.69140625
1508276094110.0483,-31.73828125,26.85546875,34.66796875,22.4609375,4.8828125
1508276094113.9546,-41.015625,29.78515625,35.64453125,-25.87890625,-51.26953125
1508276094117.8608,-30.2734375,31.25,35.64453125,-8.7890625,-37.109375
1508276094121.767,-18.5546875,32.2265625,34.1796875,39.0625,21.484375
1508276094125.6733,-16.11328125,32.71484375,35.64453125,47.36328125,14.6484375
1508276094129.5796,-31.25,33.69140625,39.0625,-6.8359375,0.0
1508276094133.4858,-36.62109375,32.2265625,35.15625,-1.953125,33.203125
1508276094137.392,-1.46484375,31.73828125,31.25,64.453125,57.12890625
1508276094141.2983,-2.9296875,32.71484375,35.15625,40.0390625,19.53125
1508276094128.3528,-44.43359375,27.83203125,35.64453125,-24.4140625,-9.27734375
1508276094132.259,-62.5,26.3671875,32.2265625,-36.1328125,-8.30078125
1508276094136.1653,-47.8515625,25.87890625,38.57421875,18.06640625,-17.08984375
1508276094140.0715,-22.4609375,24.90234375,42.48046875,44.921875,-14.6484375
1508276094143.9778,-10.7421875,24.90234375,40.52734375,0.9765625,-23.92578125
1508276094147.884,-35.64453125,28.80859375,40.52734375,-35.15625,-5.37109375
1508276094151.7903,-44.43359375,29.78515625,39.0625,7.32421875,21.97265625
1508276094155.6965,-16.11328125,27.34375,37.109375,37.109375,35.64453125
1508276094159.6028,-18.06640625,29.78515625,34.66796875,26.85546875,12.6953125
1508276094163.509,-44.921875,31.73828125,34.1796875,-6.34765625,-14.16015625
1508276094167.4153,-39.0625,33.203125,36.62109375,7.32421875,35.64453125
1508276094171.3215,-16.6015625,31.25,38.0859375,19.53125,-10.25390625
1508276094173.383,-14.16015625,30.2734375,35.15625,2.44140625,-66.89453125
1508276094177.2893,-21.97265625,31.73828125,30.76171875,-3.90625,-22.4609375
1508276094181.1956,-37.59765625,38.0859375,34.1796875,-1.46484375,-12.6953125
1508276094185.1018,-26.85546875,43.9453125,35.64453125,33.203125,15.625
1508276094189.008,-16.11328125,39.0625,31.25,48.828125,41.50390625
1508276094192.9143,-23.92578125,36.1328125,32.2265625,5.37109375,-1.953125
1508276094196.8206,-27.34375,39.0625,37.109375,-30.2734375,-8.7890625
1508276094200.7268,-24.90234375,38.57421875,39.0625,19.53125,4.8828125
1508276094204.633,-3.41796875,35.64453125,32.71484375,57.12890625,6.8359375
1508276094208.5393,-6.8359375,35.64453125,28.3203125,25.390625,-26.85546875
1508276094212.4456,-26.85546875,33.69140625,29.296875,-22.94921875,-28.3203125
1508276094216.3518,-14.16015625,30.76171875,31.73828125,24.4140625,5.37109375
1508276094233.9277,-20.5078125,32.71484375,31.25,64.453125,1.46484375
1508276094237.834,-20.5078125,34.1796875,30.2734375,54.19921875,0.9765625
1508276094241.7402,-11.71875,34.1796875,34.1796875,2.44140625,0.0
1508276094245.6465,-7.8125,34.66796875,35.64453125,2.44140625,-1.953125
1508276094249.5527,11.23046875,34.1796875,35.15625,69.82421875,5.859375
1508276094253.459,4.8828125,32.71484375,35.64453125,77.1484375,15.625
1508276094257.3652,-9.765625,32.2265625,41.9921875,17.578125,-7.32421875
1508276094261.2715,-20.5078125,25.87890625,31.73828125,-3.90625,4.39453125
1508276094265.1777,-14.16015625,22.94921875,20.99609375,53.7109375,2.9296875
1508276094269.084,-8.30078125,27.83203125,32.2265625,64.453125,1.46484375
1508276094272.9902,-17.578125,27.34375,36.62109375,20.99609375,-4.8828125
1508276094276.8965,-11.71875,30.2734375,39.0625,3.90625,-24.90234375
1508276094263.447,-1.46484375,29.78515625,37.59765625,51.26953125,12.6953125
1508276094267.3533,3.90625,30.2734375,34.66796875,67.3828125,15.625
1508276094271.2595,-5.37109375,31.73828125,33.69140625,42.48046875,35.15625
1508276094275.1658,-28.3203125,32.2265625,36.1328125,2.9296875,28.80859375
1508276094279.072,-3.41796875,33.69140625,41.9921875,38.0859375,-18.06640625
1508276094282.9783,29.296875,28.80859375,44.43359375,80.078125,-16.11328125
1508276094286.8845,0.48828125,26.3671875,41.015625,53.22265625,4.8828125
1508276094290.7908,-22.94921875,26.85546875,36.62109375,8.30078125,-13.18359375
1508276094294.697,-13.671875,25.390625,33.69140625,0.48828125,-22.4609375
1508276094298.6033,-6.8359375,26.3671875,34.1796875,51.26953125,-6.8359375
1508276094302.5095,-9.765625,26.85546875,39.0625,37.59765625,-25.390625
1508276094306.4158,-28.80859375,21.97265625,36.62109375,-12.20703125,-17.08984375
1508276094323.4897,-40.0390625,20.99609375,34.1796875,8.30078125,-1.46484375
1508276094327.396,-13.18359375,20.01953125,37.109375,52.734375,-16.6015625
1508276094331.3022,6.34765625,22.94921875,36.1328125,64.94140625,10.25390625
1508276094335.2085,-6.34765625,23.92578125,30.2734375,39.55078125,48.33984375
1508276094339.1147,-20.99609375,25.87890625,30.76171875,-27.83203125,13.671875
1508276094343.021,-37.59765625,26.85546875,29.78515625,-8.7890625,-20.5078125
1508276094346.9272,-22.4609375,24.90234375,25.390625,33.69140625,12.6953125
1508276094350.8335,-10.25390625,23.4375,19.53125,17.08984375,51.26953125
1508276094354.7397,-26.85546875,20.01953125,22.94921875,-9.27734375,-4.39453125
1508276094358.646,-26.3671875,23.4375,33.203125,-13.671875,-38.57421875
1508276094362.5522,-7.32421875,23.92578125,28.80859375,23.4375,-3.90625
1508276094366.4585,-6.34765625,22.94921875,20.01953125,48.33984375,26.3671875
1508276094369.0232,-30.76171875,24.4140625,22.94921875,6.34765625,42.48046875
1508276094372.9294,-27.34375,21.97265625,25.390625,5.37109375,46.38671875
1508276094376.8357,12.6953125,26.3671875,25.390625,62.01171875,46.875
1508276094380.742,5.859375,23.92578125,26.3671875,69.82421875,67.3828125
1508276094384.6482,-13.18359375,24.4140625,30.76171875,35.64453125,30.76171875
1508276094388.5544,-1.46484375,33.69140625,35.15625,-2.9296875,-18.06640625
1508276094392.4607,8.30078125,36.1328125,29.78515625,25.87890625,4.39453125
1508276094396.367,3.90625,35.15625,27.83203125,59.08203125,35.15625
1508276094400.2732,1.953125,32.71484375,32.2265625,19.53125,12.6953125
1508276094404.1794,-14.16015625,31.73828125,31.25,-26.85546875,-13.18359375
1508276094408.0857,-11.71875,33.69140625,24.4140625,25.87890625,18.5546875
1508276094411.992,13.18359375,32.71484375,23.4375,81.0546875,34.1796875
1508276094413.556,2.44140625,34.66796875,28.80859375,64.453125,25.87890625
1508276094417.4622,-15.625,36.62109375,28.80859375,12.20703125,9.765625
1508276094421.3684,-0.9765625,37.109375,24.90234375,18.06640625,12.6953125
1508276094425.2747,12.6953125,36.1328125,31.25,65.91796875,1.953125
1508276094429.181,4.8828125,35.64453125,37.109375,59.08203125,-2.9296875
1508276094433.0872,-7.8125,41.50390625,41.50390625,18.06640625,-36.1328125
1508276094436.9934,-18.5546875,39.0625,40.52734375,12.20703125,-33.203125
1508276094440.8997,-8.7890625,31.25,39.0625,70.3125,12.20703125
1508276094444.806,2.44140625,31.25,41.50390625,74.21875,12.6953125
1508276094448.7122,0.0,39.55078125,40.52734375,18.06640625,-36.1328125
1508276094452.6184,-12.6953125,41.015625,31.73828125,7.8125,-13.671875
1508276094456.5247,-13.671875,37.109375,28.3203125,53.7109375,32.71484375
1508276094458.586,-5.859375,40.52734375,31.25,75.68359375,35.64453125
1508276094462.4922,-6.8359375,42.48046875,33.203125,37.59765625,40.0390625
1508276094466.3984,-17.08984375,43.45703125,35.15625,-3.90625,14.6484375
1508276094470.3047,-17.578125,44.43359375,35.64453125,31.25,22.94921875
1508276094474.211,-2.44140625,47.36328125,31.25,62.01171875,26.85546875
1508276094478.1172,0.48828125,50.29296875,31.25,50.29296875,8.7890625
1508276094482.0234,-22.4609375,50.29296875,30.2734375,10.7421875,18.06640625
1508276094485.9297,-14.6484375,49.31640625,38.0859375,9.27734375,-21.484375
1508276094489.836,19.04296875,50.29296875,42.48046875,38.0859375,-27.83203125
1508276094493.7422,18.06640625,52.24609375,32.2265625,48.828125,13.18359375
1508276094497.6484,-8.30078125,46.38671875,33.69140625,15.625,3.90625
1508276094501.5547,-21.97265625,43.9453125,32.71484375,-6.34765625,-10.7421875
1508276094503.618,-19.04296875,47.8515625,28.80859375,37.109375,-7.8125
1508276094507.5242,1.46484375,50.29296875,29.78515625,52.734375,-22.94921875
1508276094511.4304,-8.30078125,49.31640625,31.25,30.76171875,-29.78515625
1508276094515.3367,-48.828125,42.48046875,37.109375,-14.6484375,27.34375
1508276094519.243,-29.78515625,35.15625,36.62109375,11.23046875,54.19921875
1508276094523.1492,-9.765625,35.15625,38.57421875,55.17578125,35.64453125
1508276094527.0554,-28.80859375,34.66796875,39.55078125,27.34375,42.96875
1508276094530.9617,-31.25,38.57421875,40.52734375,-17.08984375,10.7421875
1508276094534.868,1.46484375,42.48046875,38.0859375,18.06640625,5.859375
1508276094538.7742,13.18359375,37.59765625,32.2265625,62.5,32.2265625
1508276094542.6804,-15.13671875,35.64453125,36.1328125,44.43359375,-6.34765625
1508276094546.5867,-37.59765625,36.62109375,34.66796875,4.39453125,-19.04296875
1508276094548.1492,-24.4140625,37.59765625,31.25,5.37109375,0.48828125
1508276094552.0554,-13.671875,37.59765625,31.73828125,57.12890625,14.6484375
1508276094555.9617,-11.23046875,41.015625,34.66796875,48.33984375,-1.953125
1508276094559.868,-18.5546875,39.55078125,39.0625,-25.87890625,16.6015625
1508276094563.7742,-35.15625,28.80859375,38.0859375,-30.76171875,15.625
1508276094567.6804,-6.8359375,19.04296875,35.15625,39.55078125,-23.92578125
1508276094571.5867,21.484375,14.6484375,36.62109375,75.1953125,-21.97265625
1508276094575.493,-31.73828125,15.13671875,36.62109375,3.90625,3.41796875
1508276094579.3992,-72.265625,11.71875,31.73828125,-48.828125,-6.8359375
1508276094583.3054,-21.97265625,10.7421875,31.73828125,28.80859375,-15.13671875
1508276094587.2117,-2.44140625,12.20703125,33.203125,55.17578125,29.296875
1508276094591.118,-25.87890625,8.7890625,30.76171875,33.69140625,28.3203125
1508276094593.1812,-33.69140625,10.7421875,31.25,-8.7890625,-0.9765625
1508276094597.0874,-22.94921875,15.13671875,38.57421875,5.859375,8.30078125
1508276094600.9937,-6.8359375,15.13671875,41.9921875,58.10546875,9.27734375
1508276094604.9,-0.9765625,16.11328125,41.015625,41.50390625,-29.296875
1508276094608.8062,-3.41796875,17.08984375,40.0390625,-8.7890625,-46.875
1508276094612.7124,-4.39453125,20.5078125,39.55078125,5.859375,-36.1328125
1508276094616.6187,2.9296875,22.94921875,38.57421875,63.4765625,7.8125
1508276094620.525,8.7890625,16.6015625,32.2265625,73.73046875,32.71484375
1508276094624.4312,-2.9296875,16.11328125,28.3203125,28.3203125,7.8125
1508276094628.3374,-13.671875,18.06640625,26.85546875,-13.18359375,4.8828125
1508276094632.2437,-8.7890625,14.6484375,19.04296875,31.73828125,15.625
1508276094636.15,3.41796875,16.6015625,26.3671875,64.453125,-5.859375
1508276094638.7136,9.27734375,19.04296875,30.2734375,28.80859375,37.109375
1508276094642.6199,-10.7421875,18.5546875,31.25,-13.18359375,24.90234375
1508276094646.5261,2.44140625,20.5078125,37.109375,29.296875,-14.6484375
1508276094650.4324,27.83203125,17.08984375,30.2734375,66.89453125,-28.3203125
1508276094654.3386,8.30078125,16.6015625,30.76171875,51.26953125,-9.765625
1508276094658.2449,-2.9296875,22.4609375,38.0859375,3.41796875,-27.34375
1508276094662.1511,0.48828125,24.4140625,38.57421875,7.8125,-63.4765625
1508276094666.0574,1.953125,21.97265625,33.203125,47.8515625,-19.53125
1508276094669.9636,5.37109375,22.4609375,41.015625,47.36328125,-22.4609375
1508276094673.8699,-6.34765625,28.3203125,45.41015625,2.9296875,-28.80859375
1508276094677.7761,-10.25390625,28.80859375,36.62109375,-13.671875,16.6015625
1508276094681.6824,15.625,29.296875,34.66796875,50.29296875,27.34375
1508276094713.3074,30.2734375,27.34375,39.55078125,85.9375,13.671875
1508276094717.2136,5.859375,23.4375,41.9921875,5.37109375,3.41796875
1508276094721.1199,-12.6953125,23.4375,42.48046875,-40.52734375,7.32421875
1508276094725.0261,-1.46484375,23.4375,39.0625,36.1328125,46.38671875
1508276094728.9324,10.7421875,21.484375,33.203125,64.94140625,55.6640625
1508276094732.8386,12.6953125,20.01953125,33.69140625,18.5546875,2.44140625
1508276094736.7449,-4.8828125,26.3671875,29.78515625,-16.11328125,12.6953125
1508276094740.6511,8.7890625,27.34375,26.85546875,39.0625,31.25
1508276094744.5574,15.13671875,15.13671875,35.15625,70.80078125,13.671875
1508276094748.4636,4.39453125,13.671875,39.55078125,29.296875,15.625
1508276094752.3699,-15.13671875,18.06640625,39.55078125,-29.78515625,20.01953125
1508276094756.2761,-28.3203125,14.16015625,40.0390625,-13.671875,12.20703125
1508276094743.3494,3.90625,10.7421875,37.109375,42.96875,16.11328125
1508276094747.2556,5.859375,11.71875,36.62109375,33.203125,19.53125
1508276094751.1619,-25.390625,13.671875,39.0625,-22.94921875,-13.671875
1508276094755.068,-26.3671875,14.6484375,41.50390625,-30.2734375,8.7890625
1508276094758.9744,-0.9765625,11.71875,39.0625,28.80859375,19.53125
1508276094762.8806,-2.44140625,14.16015625,31.73828125,45.8984375,4.39453125
1508276094766.7869,-23.92578125,17.578125,41.015625,-10.7421875,4.39453125
1508276094770.693,-30.76171875,20.99609375,45.8984375,-32.2265625,-42.48046875
1508276094774.5994,-12.20703125,20.01953125,45.8984375,25.390625,-33.203125
1508276094778.5056,-5.37109375,15.625,42.96875,36.1328125,3.90625
1508276094782.4119,-25.87890625,17.578125,35.15625,2.9296875,-24.4140625
1508276094786.318,-47.36328125,19.53125,36.62109375,-34.66796875,1.46484375
1508276094788.8628,-52.24609375,21.97265625,41.50390625,-3.90625,-36.62109375
1508276094792.769,-39.55078125,27.34375,41.50390625,18.06640625,-83.0078125
1508276094796.6753,-29.78515625,25.390625,31.25,4.8828125,-5.37109375
1508276094800.5815,-41.50390625,20.5078125,30.2734375,-27.34375,-20.5078125
1508276094804.4878,-52.24609375,18.5546875,33.203125,-37.59765625,-50.29296875
1508276094808.394,-55.6640625,13.671875,33.69140625,13.671875,-50.78125
1508276094812.3003,-54.19921875,14.16015625,35.15625,19.04296875,-14.6484375
1508276094816.2065,-58.10546875,19.04296875,39.0625,-34.1796875,8.7890625
1508276094820.1128,-58.10546875,19.53125,43.45703125,-53.22265625,-35.15625
1508276094824.019,-66.40625,18.06640625,37.59765625,11.23046875,-25.390625
1508276094827.9253,-73.2421875,17.578125,30.76171875,37.59765625,7.8125
1508276094831.8315,-70.80078125,16.6015625,36.1328125,-20.5078125,-14.16015625
1508276094833.4082,-83.49609375,18.5546875,40.52734375,-39.55078125,-41.015625
1508276094837.3145,-58.59375,20.5078125,37.59765625,34.1796875,-5.37109375
1508276094841.2207,-33.69140625,19.53125,35.64453125,47.8515625,0.9765625
1508276094845.127,-51.26953125,18.06640625,38.57421875,6.8359375,-41.015625
1508276094849.0332,-54.19921875,21.97265625,40.52734375,-28.3203125,-16.6015625
1508276094852.9395,-39.55078125,27.83203125,41.015625,-1.46484375,31.73828125
1508276094856.8457,-41.9921875,23.92578125,39.55078125,41.50390625,33.69140625
1508276094860.752,-47.36328125,19.04296875,42.96875,35.15625,1.953125
1508276094864.6582,-72.75390625,20.99609375,48.33984375,-13.671875,-58.10546875
1508276094868.5645,-72.75390625,20.01953125,41.015625,-27.34375,-79.1015625
1508276094872.4707,-41.50390625,16.6015625,29.78515625,41.50390625,-23.92578125
1508276094876.377,-32.2265625,16.11328125,30.76171875,64.453125,21.97265625
1508276094878.4268,-44.43359375,18.5546875,40.52734375,0.48828125,-8.7890625
1508276094882.333,-52.24609375,16.6015625,36.1328125,-14.6484375,-26.85546875
1508276094886.2393,-36.62109375,14.6484375,27.34375,37.59765625,-10.25390625
1508276094890.1455,-27.83203125,18.06640625,27.34375,45.8984375,-15.13671875
1508276094894.0518,-41.9921875,19.53125,28.3203125,16.6015625,-0.48828125
1508276094897.958,-43.9453125,20.5078125,32.2265625,-26.85546875,-12.20703125
1508276094901.8643,-41.015625,21.484375,28.80859375,-7.32421875,20.99609375
1508276094905.7705,-35.64453125,19.04296875,29.78515625,28.80859375,12.20703125
1508276094909.6768,-40.0390625,18.5546875,31.73828125,7.8125,-11.23046875
1508276094913.583,-59.08203125,20.99609375,26.3671875,-19.04296875,11.71875
1508276094917.4893,-51.26953125,21.484375,27.34375,10.25390625,-6.34765625
1508276094921.3955,-31.73828125,21.484375,29.78515625,48.828125,30.2734375
1508276094923.477,-22.4609375,22.4609375,28.80859375,38.0859375,43.9453125
1508276094927.3833,-33.203125,23.92578125,31.25,6.34765625,-28.3203125
1508276094931.2896,-31.25,26.3671875,35.64453125,-14.6484375,-50.29296875
1508276094935.1958,-13.671875,28.80859375,35.15625,29.78515625,-21.484375
1508276094939.102,-29.78515625,28.80859375,33.69140625,41.9921875,-20.5078125
1508276094943.0083,-56.640625,26.3671875,38.0859375,-6.8359375,-18.5546875
1508276094946.9146,-54.19921875,25.87890625,43.45703125,-25.390625,-21.484375
1508276094950.8208,-26.3671875,27.83203125,42.96875,12.6953125,-59.5703125
1508276094954.727,-41.50390625,27.34375,34.1796875,49.8046875,-24.90234375
1508276094958.6333,-80.56640625,22.4609375,35.64453125,21.97265625,1.46484375
1508276094962.5396,-96.19140625,22.4609375,42.48046875,-36.62109375,-43.45703125
1508276094966.4458,-104.98046875,28.3203125,44.921875,-28.3203125,-22.94921875
1508276094968.49,-105.95703125,31.73828125,42.96875,-11.23046875,-40.52734375
1508276094972.3962,-100.09765625,31.73828125,36.62109375,-11.71875,-64.453125
1508276094976.3025,-98.6328125,31.25,40.0390625,-59.08203125,-65.91796875
1508276094980.2087,-94.23828125,30.2734375,42.96875,-42.96875,-65.91796875
1508276094984.115,-71.77734375,27.83203125,43.9453125,35.15625,-48.828125
1508276094988.0212,-61.5234375,26.3671875,41.50390625,20.99609375,-25.390625
1508276094991.9275,-73.73046875,27.83203125,44.43359375,-41.50390625,-37.109375
1508276094995.8337,-90.33203125,30.2734375,47.36328125,-59.5703125,-80.56640625
1508276094999.74,-78.61328125,31.25,43.45703125,14.16015625,-67.3828125
1508276095003.6462,-61.03515625,30.76171875,46.875,41.50390625,-38.57421875
1508276095007.5525,-79.1015625,26.85546875,43.9453125,-16.6015625,-48.828125
1508276095011.4587,-91.796875,26.3671875,37.59765625,-51.26953125,-25.390625
1508276095013.5408,-79.1015625,32.71484375,38.0859375,-10.25390625,12.20703125
1508276095017.447,-78.125,33.203125,49.8046875,11.23046875,-7.32421875
1508276095021.3533,-102.5390625,26.85546875,53.7109375,-26.3671875,-7.32421875
1508276095025.2595,-120.60546875,23.92578125,52.734375,-76.66015625,-51.26953125
1508276095029.1658,-100.5859375,24.90234375,53.22265625,-46.38671875,-38.57421875
1508276095033.072,-80.56640625,28.80859375,54.19921875,-7.8125,-45.8984375
1508276095036.9783,-104.4921875,28.3203125,60.546875,-50.29296875,-80.56640625
1508276095040.8845,-131.34765625,22.94921875,61.5234375,-86.9140625,-39.0625
1508276095044.7908,-121.58203125,21.97265625,63.96484375,-45.8984375,-47.8515625
1508276095048.697,-85.9375,24.90234375,64.94140625,8.30078125,-54.6875
1508276095052.6033,-79.1015625,24.90234375,61.5234375,-16.6015625,-49.31640625
1508276095056.5095,-113.28125,23.92578125,56.15234375,-68.84765625,-54.6875
1508276095073.5654,-127.9296875,23.92578125,58.10546875,-65.91796875,-40.0390625
1508276095077.4717,-91.30859375,25.390625,59.08203125,-2.9296875,-29.296875
1508276095081.378,-64.94140625,24.4140625,52.734375,11.23046875,-25.390625
1508276095085.2842,-78.61328125,20.5078125,51.26953125,-28.80859375,-22.94921875
1508276095089.1904,-85.44921875,20.01953125,50.29296875,-38.0859375,-39.55078125
1508276095093.0967,-56.15234375,21.484375,46.38671875,18.06640625,-14.16015625
1508276095097.003,-31.73828125,24.4140625,47.36328125,52.734375,21.97265625
1508276095100.9092,-22.4609375,26.3671875,40.52734375,42.48046875,8.7890625
1508276095104.8154,-12.6953125,27.34375,37.109375,9.27734375,-77.1484375
1508276095108.7217,-12.20703125,27.83203125,46.38671875,20.99609375,-114.2578125
1508276095112.628,-8.7890625,25.87890625,46.38671875,64.453125,-51.26953125
1508276095116.5342,-4.8828125,23.4375,40.0390625,87.890625,18.5546875
1508276095118.5977,-18.5546875,23.92578125,40.52734375,43.9453125,8.30078125
1508276095122.504,-13.18359375,24.4140625,42.48046875,24.90234375,-42.48046875
1508276095126.4102,20.01953125,22.4609375,41.50390625,95.21484375,-80.56640625
1508276095130.3164,29.78515625,18.06640625,39.55078125,112.3046875,-37.59765625
1508276095134.2227,0.9765625,17.08984375,41.50390625,53.22265625,-14.6484375
1508276095138.129,-9.765625,19.53125,45.41015625,41.015625,-51.7578125
1508276095142.0352,15.13671875,22.4609375,39.55078125,90.8203125,-62.5
1508276095145.9414,30.2734375,26.3671875,35.15625,92.28515625,-26.85546875
1508276095149.8477,18.5546875,26.3671875,35.15625,63.4765625,-12.20703125
1508276095153.754,12.20703125,27.34375,36.62109375,23.4375,-66.89453125
1508276095157.6602,20.99609375,27.83203125,32.71484375,71.77734375,-78.61328125
1508276095161.5664,31.25,25.390625,33.203125,122.0703125,-41.50390625
1508276095163.1292,33.69140625,26.3671875,41.50390625,75.1953125,-64.453125
1508276095167.0354,17.578125,28.80859375,43.45703125,36.62109375,-67.3828125
1508276095170.9417,9.27734375,28.3203125,41.50390625,67.87109375,-34.66796875
1508276095174.848,36.1328125,27.83203125,40.0390625,105.46875,-29.296875
1508276095178.7542,38.0859375,29.296875,39.0625,82.03125,-22.94921875
1508276095182.6604,5.859375,32.71484375,42.96875,32.2265625,-66.40625
1508276095186.5667,11.71875,35.15625,44.921875,39.0625,-70.80078125
1508276095190.473,30.2734375,33.203125,38.57421875,105.46875,-4.39453125
1508276095194.3792,33.203125,31.73828125,38.57421875,94.23828125,-27.34375
1508276095198.2854,17.08984375,33.203125,41.015625,25.390625,-43.45703125
1508276095202.1917,-0.9765625,35.64453125,40.52734375,36.62109375,-10.25390625
1508276095206.098,8.30078125,33.69140625,40.52734375,93.26171875,-39.55078125
1508276095208.1602,14.16015625,34.1796875,40.52734375,91.30859375,-40.0390625
1508276095212.0664,9.27734375,35.15625,41.50390625,50.78125,-36.62109375
1508276095215.9727,-2.9296875,30.2734375,42.96875,30.76171875,-41.015625
1508276095219.879,3.90625,27.83203125,41.015625,60.546875,-15.625
1508276095223.7852,33.203125,31.73828125,35.15625,87.40234375,-36.62109375
1508276095227.6914,15.13671875,35.15625,38.57421875,71.77734375,-34.1796875
1508276095231.5977,-19.04296875,37.59765625,41.9921875,16.11328125,-26.85546875
1508276095235.504,-9.27734375,36.1328125,44.43359375,38.57421875,-55.17578125
1508276095239.4102,19.53125,34.66796875,49.31640625,69.82421875,-71.2890625
1508276095243.3164,15.13671875,33.69140625,39.0625,62.01171875,12.6953125
1508276095247.2227,-7.8125,31.73828125,34.66796875,41.9921875,33.203125
1508276095251.129,-8.7890625,35.15625,36.62109375,18.06640625,-17.578125
1508276095253.2112,9.27734375,35.64453125,37.59765625,67.87109375,-18.5546875
1508276095257.1174,12.20703125,33.203125,39.0625,89.35546875,-9.765625
1508276095261.0237,-4.39453125,33.203125,40.52734375,45.41015625,-19.04296875
1508276095264.93,-1.953125,36.1328125,39.0625,6.8359375,-38.0859375
1508276095268.8362,12.20703125,34.66796875,33.203125,57.12890625,-29.78515625
1508276095272.7424,11.23046875,32.71484375,41.9921875,78.125,-43.45703125
1508276095276.6487,-1.46484375,34.1796875,47.36328125,44.43359375,-16.6015625
1508276095280.555,-14.6484375,34.66796875,49.8046875,6.34765625,5.37109375
1508276095284.4612,-3.90625,34.66796875,46.875,28.3203125,-20.01953125
1508276095288.3674,14.16015625,31.73828125,38.0859375,79.1015625,-9.27734375
1508276095292.2737,-3.90625,27.83203125,40.52734375,66.89453125,-42.48046875
1508276095296.18,-25.390625,26.85546875,40.52734375,17.08984375,-14.6484375
1508276095298.2253,-15.13671875,27.83203125,37.109375,25.390625,29.78515625
1508276095302.1316,6.34765625,26.85546875,36.1328125,79.58984375,12.20703125
1508276095306.0378,13.18359375,28.80859375,35.64453125,73.2421875,-3.41796875
1508276095309.944,-11.71875,34.1796875,39.55078125,4.39453125,-27.83203125
1508276095313.8503,-26.85546875,30.76171875,41.50390625,-10.7421875,-23.4375
1508276095317.7566,-2.9296875,29.296875,36.62109375,66.40625,8.30078125
1508276095321.6628,10.7421875,31.73828125,37.109375,79.1015625,-19.53125
1508276095325.569,-7.32421875,32.2265625,38.57421875,18.5546875,-45.41015625
1508276095329.4753,-13.671875,33.203125,33.203125,-7.8125,-55.17578125
1508276095333.3816,-6.8359375,30.2734375,31.73828125,52.24609375,-33.69140625
1508276095337.2878,-14.6484375,29.296875,34.66796875,67.3828125,-16.11328125
1508276095341.194,-6.8359375,30.2734375,36.1328125,33.69140625,-59.08203125
1508276095343.2566,-5.37109375,26.85546875,35.64453125,-6.34765625,-55.17578125
1508276095347.1628,-5.37109375,26.85546875,35.15625,16.6015625,-32.71484375
1508276095351.069,6.34765625,30.76171875,30.2734375,68.84765625,-49.8046875
1508276095354.9753,9.27734375,28.80859375,29.296875,60.546875,-53.22265625
1508276095358.8816,-9.765625,28.3203125,33.203125,20.5078125,-45.8984375
1508276095362.7878,-17.08984375,29.296875,36.1328125,6.8359375,-29.78515625
1508276095366.694,9.27734375,29.296875,40.0390625,40.0390625,-39.55078125
1508276095370.6003,0.48828125,31.25,39.0625,50.78125,-40.52734375
1508276095374.5066,-22.4609375,29.296875,31.73828125,21.484375,-14.6484375
1508276095378.4128,-10.25390625,33.203125,34.66796875,1.953125,-59.08203125
1508276095382.319,2.44140625,32.2265625,32.2265625,37.109375,-47.8515625
1508276095386.2253,-0.9765625,26.85546875,25.87890625,58.10546875,9.27734375
1508276095388.3079,-15.13671875,27.83203125,26.3671875,36.1328125,12.20703125
1508276095392.214,-10.25390625,32.2265625,30.76171875,-11.23046875,-30.2734375
1508276095396.1204,4.8828125,34.1796875,32.2265625,14.16015625,-5.859375
1508276095400.0266,4.8828125,32.2265625,31.25,57.12890625,29.78515625
1508276095403.9329,-8.7890625,31.25,29.296875,37.109375,-0.48828125
1508276095407.839,-17.08984375,34.1796875,38.0859375,-5.37109375,-9.765625
1508276095411.7454,-11.23046875,32.2265625,43.9453125,-3.90625,-35.15625
1508276095415.6516,-16.11328125,28.3203125,33.69140625,34.1796875,-14.16015625
1508276095419.5579,-8.30078125,28.3203125,31.73828125,40.0390625,19.04296875
1508276095423.464,-14.16015625,30.2734375,33.203125,-22.4609375,-24.90234375
1508276095427.3704,-37.59765625,29.78515625,30.2734375,-22.4609375,-12.20703125
1508276095431.2766,-21.97265625,26.3671875,29.78515625,38.57421875,-0.48828125
1508276095448.3306,-8.30078125,28.80859375,26.85546875,36.1328125,-6.34765625
1508276095452.2368,-15.625,34.1796875,27.34375,-15.625,-24.4140625
1508276095456.143,-21.97265625,39.0625,30.76171875,-32.71484375,-30.2734375
1508276095460.0493,-7.32421875,41.9921875,30.2734375,23.4375,-47.8515625
1508276095463.9556,1.953125,40.52734375,28.3203125,50.29296875,-47.36328125
1508276095467.8618,-15.13671875,37.59765625,30.76171875,3.41796875,-13.671875
1508276095471.768,-32.71484375,37.109375,29.296875,-62.01171875,-37.109375
1508276095475.6743,-22.94921875,36.1328125,22.94921875,-19.53125,-78.125
1508276095479.5806,-2.9296875,33.69140625,25.390625,42.96875,-85.44921875
1508276095483.4868,9.27734375,33.69140625,30.2734375,16.6015625,-48.33984375
1508276095487.393,-13.671875,37.59765625,24.4140625,-49.8046875,-36.1328125
1508276095491.2993,-20.99609375,38.57421875,24.90234375,-11.23046875,-66.89453125
1508276095493.8635,-1.953125,35.15625,31.25,45.41015625,-69.82421875
1508276095497.7698,-5.37109375,35.64453125,29.78515625,45.41015625,-26.85546875
1508276095501.676,-7.32421875,38.0859375,28.3203125,6.34765625,-31.25
1508276095505.5823,-1.46484375,35.64453125,27.83203125,-23.92578125,2.44140625
1508276095509.4885,-0.9765625,33.69140625,29.78515625,28.3203125,1.953125
1508276095513.3948,-11.71875,33.69140625,33.203125,45.41015625,-23.4375
1508276095517.301,-20.99609375,35.64453125,32.71484375,-1.46484375,-41.9921875
1508276095521.2073,-26.3671875,34.66796875,34.1796875,-25.390625,-58.59375
1508276095525.1135,3.41796875,34.66796875,39.0625,28.3203125,-15.625
1508276095529.0198,8.7890625,39.55078125,39.0625,60.05859375,-53.7109375
1508276095532.926,-15.625,36.1328125,31.73828125,23.4375,-70.3125
1508276095536.8323,-15.625,35.64453125,33.203125,-9.27734375,-41.50390625
1508276095538.3945,-1.46484375,37.59765625,36.62109375,21.97265625,-37.109375
1508276095542.3008,18.5546875,35.15625,34.66796875,52.734375,-22.94921875
1508276095546.207,16.11328125,33.203125,36.1328125,38.57421875,-28.3203125
1508276095550.1133,-5.859375,32.2265625,37.59765625,0.0,-16.11328125
1508276095554.0195,-11.23046875,32.71484375,37.59765625,20.01953125,-8.30078125
1508276095557.9258,3.90625,34.66796875,36.62109375,58.10546875,-13.671875
1508276095561.832,19.53125,37.59765625,36.1328125,43.45703125,20.99609375
1508276095565.7383,7.32421875,37.109375,30.76171875,8.7890625,15.625
1508276095569.6445,5.37109375,35.15625,31.25,1.46484375,-30.76171875
1508276095573.5508,34.66796875,35.64453125,36.62109375,38.0859375,-31.25
1508276095577.457,31.73828125,34.66796875,29.78515625,71.2890625,6.34765625
1508276095581.3633,-6.34765625,31.25,33.69140625,32.71484375,-6.8359375
1508276095583.4258,-15.625,31.25,41.015625,-1.46484375,-11.23046875
1508276095587.332,11.23046875,30.2734375,35.15625,56.640625,-6.8359375
1508276095591.2383,19.04296875,27.83203125,33.203125,89.84375,-9.765625
1508276095595.1445,6.8359375,27.34375,39.55078125,39.55078125,4.39453125
1508276095599.0508,4.39453125,25.390625,41.015625,-24.4140625,-14.16015625
1508276095602.957,-2.9296875,21.97265625,38.57421875,1.953125,-3.41796875
1508276095606.8633,-1.953125,20.99609375,37.59765625,52.24609375,11.23046875
1508276095610.7695,21.97265625,23.92578125,40.0390625,50.78125,-15.625
1508276095614.6758,-1.46484375,26.85546875,41.9921875,-13.671875,-67.87109375
1508276095618.582,-18.5546875,26.3671875,38.0859375,-4.39453125,-23.4375
1508276095622.4883,3.41796875,21.97265625,38.0859375,63.96484375,22.94921875
1508276095626.3945,-4.8828125,24.4140625,38.0859375,60.05859375,0.0
1508276095628.959,-21.484375,28.3203125,39.55078125,8.30078125,15.625
1508276095632.8652,-21.97265625,27.34375,41.50390625,-12.20703125,22.4609375
1508276095636.7715,-6.34765625,25.390625,39.0625,42.48046875,47.36328125
1508276095640.6777,0.9765625,25.390625,37.109375,54.6875,73.73046875
1508276095644.584,-5.37109375,27.34375,40.0390625,31.73828125,80.56640625
1508276095648.4902,-7.32421875,34.66796875,44.921875,2.44140625,14.6484375
1508276095652.3965,-8.7890625,36.62109375,39.55078125,28.80859375,-27.34375
1508276095656.3027,-0.9765625,31.25,40.0390625,53.7109375,-52.734375
1508276095660.209,8.30078125,31.73828125,42.48046875,36.62109375,-52.24609375
1508276095664.1152,-8.30078125,32.2265625,39.55078125,9.765625,-12.20703125
1508276095668.0215,-10.7421875,32.2265625,37.109375,32.2265625,-10.25390625
1508276095671.9277,7.32421875,30.76171875,29.296875,78.61328125,-17.08984375
1508276095688.4998,-3.41796875,28.3203125,31.25,55.17578125,19.04296875
1508276095692.406,-31.25,24.90234375,39.55078125,7.32421875,15.13671875
1508276095696.3123,-18.5546875,19.53125,47.8515625,18.5546875,-25.390625
1508276095700.2185,7.8125,25.390625,42.96875,72.265625,-17.08984375
1508276095704.1248,10.25390625,33.203125,33.69140625,77.63671875,22.94921875
1508276095708.031,-8.7890625,34.66796875,34.66796875,21.484375,52.24609375
1508276095711.9373,-30.76171875,39.0625,37.109375,-5.37109375,19.04296875
1508276095715.8435,0.48828125,40.52734375,35.64453125,54.19921875,0.9765625
1508276095719.7498,4.8828125,36.1328125,25.87890625,62.98828125,48.33984375
1508276095723.656,-8.7890625,31.73828125,22.4609375,12.20703125,52.734375
1508276095727.5623,-8.7890625,34.1796875,25.87890625,-26.3671875,6.34765625
1508276095731.4685,-11.71875,34.66796875,26.3671875,17.578125,36.1328125
1508276095718.521,-6.8359375,34.66796875,23.4375,75.68359375,54.6875
1508276095722.4272,-9.765625,35.15625,27.83203125,58.10546875,29.78515625
1508276095726.3335,-11.23046875,35.15625,35.15625,4.39453125,22.4609375
1508276095730.2397,-11.71875,35.15625,34.1796875,18.5546875,14.16015625
1508276095734.146,-2.9296875,32.71484375,29.78515625,79.58984375,-0.48828125
1508276095738.0522,-0.48828125,32.71484375,33.203125,73.73046875,-6.34765625
1508276095741.9585,-20.01953125,32.71484375,36.1328125,1.46484375,1.953125
1508276095745.8647,-16.6015625,31.25,34.1796875,4.39453125,6.8359375
1508276095749.771,5.37109375,29.296875,34.1796875,68.84765625,-2.9296875
1508276095753.6772,7.32421875,28.3203125,33.69140625,75.1953125,21.97265625
1508276095757.5835,-8.7890625,31.73828125,36.62109375,15.13671875,-2.9296875
1508276095761.4897,-30.76171875,30.76171875,37.109375,-14.6484375,-10.7421875
1508276095763.553,-30.76171875,25.390625,33.203125,56.640625,35.64453125
1508276095767.4592,-8.30078125,27.34375,32.71484375,79.58984375,20.99609375
1508276095771.3655,-21.97265625,27.83203125,33.69140625,34.66796875,-3.90625
1508276095775.2717,-43.9453125,26.3671875,34.1796875,-0.9765625,-11.71875
1508276095779.178,-20.01953125,26.3671875,25.390625,36.1328125,6.34765625
1508276095783.0842,-8.30078125,26.85546875,28.80859375,75.1953125,12.20703125
1508276095786.9905,-24.4140625,28.3203125,41.015625,30.2734375,-29.78515625
1508276095790.8967,-54.19921875,26.85546875,39.0625,-19.04296875,-24.90234375
1508276095794.803,-49.8046875,24.90234375,37.109375,14.6484375,-11.71875
1508276095798.7092,-29.296875,24.4140625,34.1796875,61.03515625,-21.97265625
1508276095802.6155,-35.64453125,22.94921875,34.66796875,41.50390625,-16.11328125
1508276095806.5217,-52.734375,21.484375,38.57421875,7.8125,5.37109375
1508276095823.596,-45.41015625,20.5078125,36.1328125,14.16015625,12.20703125
1508276095827.5022,-26.3671875,18.06640625,34.66796875,43.9453125,-14.16015625
1508276095831.4084,-41.9921875,15.625,30.2734375,61.5234375,21.97265625
1508276095835.3147,-60.05859375,14.16015625,27.83203125,28.80859375,56.640625
1508276095839.221,-57.6171875,12.20703125,35.15625,-20.99609375,0.0
1508276095843.1272,-33.69140625,12.6953125,36.62109375,20.01953125,-22.94921875
1508276095847.0334,-25.390625,15.625,35.64453125,48.828125,-24.4140625
1508276095850.9397,-47.36328125,14.6484375,35.64453125,16.6015625,-1.953125
1508276095854.846,-62.01171875,14.16015625,36.1328125,-6.34765625,14.16015625
1508276095858.7522,-40.52734375,16.11328125,41.9921875,5.37109375,-26.85546875
1508276095862.6584,-30.76171875,15.13671875,37.59765625,41.9921875,-32.71484375
1508276095866.5647,-33.203125,13.671875,32.71484375,44.43359375,-4.8828125
1508276095868.6282,-33.203125,15.13671875,37.59765625,-11.71875,-16.6015625
1508276095872.5344,-24.4140625,19.53125,39.0625,0.0,-27.34375
1508276095876.4407,-12.6953125,20.01953125,38.57421875,59.08203125,-24.90234375
1508276095880.347,-28.3203125,17.08984375,34.66796875,53.22265625,-31.73828125
1508276095884.2532,-53.22265625,16.6015625,35.15625,0.0,-27.83203125
1508276095888.1594,-55.17578125,19.04296875,36.62109375,-2.44140625,-17.578125
1508276095892.0657,-37.109375,19.53125,33.69140625,59.08203125,6.8359375
1508276095895.972,-21.484375,19.53125,33.69140625,51.26953125,1.46484375
1508276095899.8782,-34.1796875,20.5078125,35.64453125,-1.953125,-14.6484375
1508276095903.7844,-52.24609375,19.53125,37.109375,-36.1328125,-41.015625
1508276095907.6907,-38.57421875,17.578125,32.71484375,20.01953125,-8.30078125
1508276095911.597,-21.97265625,15.13671875,32.71484375,64.94140625,56.640625
1508276095913.1594,-25.390625,17.08984375,38.57421875,30.2734375,14.6484375
1508276095917.0657,-36.1328125,20.5078125,40.52734375,-11.23046875,-22.94921875
1508276095920.972,-29.296875,16.11328125,38.57421875,17.578125,3.90625
1508276095924.8782,-8.7890625,12.6953125,37.59765625,60.05859375,13.18359375
1508276095928.7844,-10.7421875,15.625,40.52734375,43.45703125,6.34765625
1508276095932.6907,-24.90234375,19.53125,44.921875,-6.8359375,-23.92578125
1508276095936.597,-13.18359375,22.4609375,43.9453125,-2.44140625,-26.85546875
1508276095940.5032,-1.953125,20.01953125,37.59765625,52.24609375,-0.9765625
1508276095944.4094,0.9765625,20.5078125,40.52734375,51.7578125,-32.2265625
1508276095948.3157,-4.8828125,23.4375,41.9921875,-4.39453125,-30.76171875
1508276095952.222,-20.5078125,24.90234375,35.64453125,-7.32421875,7.8125
1508276095956.1282,-16.6015625,24.4140625,34.66796875,50.78125,-2.44140625
1508276095958.2114,-10.7421875,21.97265625,34.1796875,55.6640625,32.2265625
1508276095962.1177,-12.6953125,20.5078125,34.66796875,19.04296875,51.26953125
1508276095966.024,-17.578125,18.5546875,34.1796875,-22.4609375,-8.7890625
1508276095969.9302,-14.16015625,20.01953125,29.78515625,12.20703125,-15.13671875
1508276095973.8364,-3.90625,21.97265625,30.2734375,55.17578125,-8.30078125
1508276095977.7427,-12.20703125,26.85546875,34.1796875,28.80859375,-32.71484375
1508276095981.649,-24.4140625,24.4140625,37.59765625,-29.78515625,-43.45703125
1508276095985.5552,-17.578125,22.4609375,36.1328125,-6.34765625,-74.70703125
1508276095989.4614,-0.9765625,25.87890625,33.69140625,43.9453125,-47.8515625
1508276095993.3677,-7.8125,24.4140625,33.69140625,41.9921875,-12.6953125
1508276095997.274,-17.578125,24.90234375,35.64453125,5.37109375,-11.23046875
1508276096001.1802,-8.7890625,28.80859375,41.015625,-7.8125,-14.6484375
1508276096003.2434,-8.30078125,27.34375,38.57421875,43.45703125,-21.97265625
1508276096007.1497,-4.39453125,26.3671875,33.203125,50.29296875,-8.7890625
1508276096011.056,-11.71875,27.83203125,37.59765625,-2.44140625,-24.90234375
1508276096014.9622,-34.1796875,23.92578125,42.96875,-2.9296875,-55.6640625
1508276096018.8684,7.32421875,25.390625,40.52734375,60.05859375,-56.640625
1508276096022.7747,8.7890625,32.2265625,29.78515625,48.33984375,-10.7421875
1508276096026.681,-54.6875,31.73828125,25.390625,-25.87890625,23.4375
1508276096030.5872,-70.80078125,34.1796875,34.1796875,-71.2890625,4.8828125
1508276096034.4934,-57.6171875,34.66796875,31.25,-43.9453125,7.32421875
1508276096038.3997,-63.4765625,34.1796875,21.484375,-13.18359375,-9.27734375
1508276096042.306,-78.125,35.15625,21.484375,-50.78125,-21.484375
1508276096046.2122,-97.16796875,33.69140625,29.78515625,-123.53515625,-23.4375
1508276096063.2656,-119.140625,33.69140625,29.296875,-122.55859375,34.1796875
1508276096067.1719,-104.98046875,35.64453125,19.53125,-58.59375,32.71484375
1508276096071.0781,-93.26171875,37.59765625,22.4609375,-58.10546875,-12.20703125
1508276096074.9844,-123.53515625,32.2265625,25.87890625,-120.1171875,-18.06640625
1508276096078.8906,-134.765625,31.73828125,19.04296875,-134.27734375,-6.34765625
1508276096082.7969,-112.3046875,32.2265625,17.08984375,-74.70703125,31.25
1508276096086.7031,-104.4921875,29.296875,23.4375,-69.3359375,3.90625
1508276096090.6094,-116.69921875,32.2265625,22.94921875,-124.0234375,-20.5078125
1508276096094.5156,-103.515625,32.71484375,17.08984375,-122.0703125,-40.52734375
1508276096098.4219,-79.58984375,27.83203125,18.06640625,-42.96875,-18.06640625
1508276096102.3281,-78.61328125,26.3671875,20.99609375,-22.94921875,3.90625
1508276096106.2344,-81.54296875,26.3671875,15.13671875,-42.96875,-13.18359375
1508276096093.3074,-78.125,25.390625,16.11328125,-61.5234375,-33.69140625
1508276096097.2136,-54.6875,22.94921875,19.53125,-33.69140625,-0.48828125
1508276096101.1199,-28.3203125,21.97265625,18.06640625,-1.46484375,-2.9296875
1508276096105.0261,-21.97265625,20.01953125,15.625,-0.9765625,-26.85546875
1508276096108.9324,-36.62109375,19.53125,17.08984375,-18.06640625,-14.16015625
1508276096112.8386,-33.203125,19.04296875,20.01953125,-4.39453125,-6.8359375
1508276096116.7449,4.39453125,18.5546875,16.6015625,38.0859375,27.83203125
1508276096120.6511,14.6484375,20.99609375,14.16015625,45.41015625,21.97265625
1508276096124.5574,-21.484375,20.99609375,16.6015625,2.44140625,16.11328125
1508276096128.4636,-26.85546875,15.625,20.01953125,1.46484375,9.27734375
1508276096132.3699,12.6953125,14.16015625,23.4375,42.48046875,1.46484375
1508276096136.2761,14.16015625,15.625,20.99609375,35.15625,9.27734375
1508276096138.3186,-9.27734375,13.671875,19.04296875,11.71875,-16.6015625
1508276096142.2249,-0.9765625,14.6484375,26.3671875,2.9296875,-27.34375
1508276096146.131,23.92578125,15.13671875,29.78515625,58.59375,-7.32421875
1508276096150.0374,33.203125,13.671875,25.87890625,84.47265625,23.4375
1508276096153.9436,33.203125,11.71875,24.4140625,55.6640625,30.76171875
1508276096157.8499,9.27734375,14.16015625,31.73828125,13.18359375,26.85546875
1508276096161.756,11.23046875,16.11328125,31.73828125,34.1796875,5.859375
1508276096165.6624,24.4140625,13.18359375,24.90234375,75.68359375,-30.2734375
1508276096169.5686,10.25390625,12.6953125,25.390625,66.89453125,19.04296875
1508276096173.4749,-5.859375,14.16015625,28.80859375,15.625,24.4140625
1508276096177.381,-0.9765625,17.578125,28.3203125,17.578125,9.27734375
1508276096181.2874,19.53125,18.06640625,23.4375,77.63671875,55.17578125
1508276096198.3662,21.484375,14.6484375,24.4140625,83.0078125,43.45703125
1508276096202.2725,5.859375,17.578125,31.25,14.6484375,-17.08984375
1508276096206.1787,4.39453125,18.5546875,30.76171875,-7.32421875,-76.171875
1508276096210.085,13.18359375,13.671875,24.90234375,73.2421875,0.9765625
1508276096213.9912,18.06640625,16.11328125,24.90234375,100.09765625,0.9765625
1508276096217.8975,9.27734375,19.04296875,27.83203125,48.33984375,-27.83203125
1508276096221.8037,-15.625,17.08984375,31.73828125,-4.8828125,5.37109375
1508276096225.71,-5.859375,17.08984375,31.73828125,43.9453125,-28.3203125
1508276096229.6162,20.99609375,17.08984375,28.80859375,83.0078125,-26.85546875
1508276096233.5225,25.87890625,17.578125,35.15625,43.45703125,-5.37109375
1508276096237.4287,0.48828125,17.578125,33.69140625,-1.953125,15.625
1508276096241.335,-14.16015625,16.11328125,27.83203125,28.3203125,25.390625
1508276096243.4136,8.7890625,15.625,25.87890625,68.84765625,17.578125
1508276096247.3198,9.27734375,18.5546875,25.390625,51.26953125,3.41796875
1508276096251.226,-10.25390625,19.04296875,36.1328125,10.7421875,-33.203125
1508276096255.1323,-7.32421875,18.06640625,37.109375,22.4609375,-22.4609375
1508276096259.0386,11.71875,19.53125,30.2734375,59.5703125,19.04296875
1508276096262.9448,7.32421875,23.92578125,32.71484375,50.29296875,35.15625
1508276096266.851,-5.37109375,24.90234375,33.203125,15.13671875,15.13671875
1508276096270.7573,-14.6484375,22.4609375,31.73828125,0.48828125,35.64453125
1508276096274.6636,-6.8359375,21.484375,33.203125,57.6171875,26.3671875
1508276096278.5698,18.5546875,25.87890625,32.2265625,58.59375,-22.94921875
1508276096282.476,2.9296875,30.2734375,25.87890625,21.97265625,19.04296875
1508276096286.3823,-20.99609375,29.296875,25.87890625,12.20703125,-4.8828125
1508276096288.4282,-1.953125,26.3671875,29.296875,40.0390625,-12.20703125
1508276096292.3345,25.390625,24.4140625,30.76171875,64.453125,-11.23046875
1508276096296.2407,24.90234375,24.4140625,30.2734375,44.43359375,-18.06640625
1508276096300.147,-14.6484375,27.34375,27.34375,3.41796875,3.41796875
1508276096304.0532,-11.23046875,29.296875,29.78515625,17.578125,13.18359375
1508276096307.9595,24.4140625,28.3203125,30.2734375,73.2421875,42.48046875
1508276096311.8657,0.9765625,30.2734375,28.3203125,67.87109375,0.48828125
1508276096315.772,-33.203125,32.2265625,27.83203125,14.6484375,-23.4375
1508276096319.6782,-17.08984375,35.15625,36.62109375,6.8359375,-38.0859375
1508276096323.5845,13.671875,33.69140625,39.0625,60.546875,-52.24609375
1508276096327.4907,10.25390625,27.83203125,31.73828125,83.0078125,4.8828125
1508276096331.397,-16.11328125,30.76171875,38.57421875,40.52734375,36.1328125
1508276096333.4597,-19.04296875,31.25,42.96875,7.32421875,-7.8125
1508276096337.366,7.32421875,26.85546875,33.69140625,56.15234375,12.20703125
1508276096341.2722,12.20703125,25.390625,29.296875,84.9609375,48.33984375
1508276096345.1785,-1.46484375,27.83203125,33.69140625,45.8984375,3.41796875
1508276096349.0847,-7.8125,30.2734375,36.62109375,14.6484375,-26.3671875
1508276096352.991,6.8359375,29.78515625,34.1796875,37.109375,0.0
1508276096356.8972,21.484375,28.80859375,23.4375,61.03515625,41.9921875
1508276096360.8035,6.34765625,31.73828125,26.85546875,57.12890625,4.39453125
1508276096364.7097,-8.30078125,29.296875,39.55078125,-14.16015625,-74.70703125
1508276096368.616,-6.8359375,22.4609375,32.2265625,0.48828125,-66.40625
1508276096372.5222,2.44140625,24.90234375,27.83203125,78.125,5.37109375
1508276096376.4285,13.671875,27.83203125,33.203125,66.89453125,-5.859375
1508276096378.5063,-8.7890625,28.3203125,35.64453125,10.7421875,-11.23046875
1508276096382.4126,-31.25,30.76171875,33.69140625,3.41796875,-24.4140625
1508276096386.3188,-7.8125,28.3203125,31.73828125,62.01171875,-27.83203125
1508276096390.225,1.46484375,24.90234375,30.2734375,68.359375,14.6484375
1508276096394.1313,-10.7421875,27.34375,31.25,22.94921875,20.99609375
1508276096398.0376,-16.11328125,29.296875,32.2265625,-6.8359375,-41.015625
1508276096401.9438,-6.8359375,29.296875,27.83203125,28.80859375,-62.5
1508276096405.85,6.8359375,29.296875,29.78515625,50.29296875,-11.71875
1508276096409.7563,12.20703125,26.3671875,32.2265625,26.3671875,0.9765625
1508276096413.6626,1.46484375,27.83203125,29.296875,10.7421875,-18.06640625
1508276096417.5688,-7.32421875,26.85546875,29.296875,30.76171875,-42.96875
1508276096421.475,12.6953125,21.484375,25.390625,75.1953125,-10.7421875
1508276096423.5244,18.06640625,22.4609375,23.92578125,52.734375,-1.953125
1508276096427.4307,-11.23046875,23.92578125,29.78515625,-20.5078125,-23.4375
1508276096431.337,-0.48828125,23.4375,34.66796875,-6.8359375,-20.99609375
1508276096435.2432,15.13671875,22.94921875,32.71484375,54.19921875,10.7421875
1508276096439.1494,5.37109375,21.484375,30.2734375,66.40625,24.90234375
1508276096443.0557,-14.6484375,20.99609375,37.59765625,11.23046875,36.1328125
1508276096446.962,-38.0859375,22.4609375,43.9453125,-4.8828125,56.15234375
1508276096450.8682,-9.27734375,25.390625,39.55078125,44.43359375,-23.92578125
1508276096454.7744,10.7421875,24.90234375,34.1796875,63.4765625,-29.296875
1508276096458.6807,-2.44140625,21.484375,33.69140625,30.2734375,13.18359375
1508276096462.587,-25.87890625,21.97265625,34.1796875,-20.5078125,20.99609375
1508276096466.4932,-14.6484375,20.01953125,36.1328125,22.4609375,31.73828125
1508276096468.5535,7.32421875,20.01953125,35.15625,59.5703125,5.859375
1508276096472.4597,-12.20703125,18.06640625,29.296875,24.90234375,0.0
1508276096476.366,-23.4375,18.06640625,30.76171875,-15.625,5.37109375
1508276096480.2722,-14.16015625,21.97265625,34.1796875,14.6484375,4.8828125
1508276096484.1785,-11.23046875,20.99609375,31.25,56.640625,27.34375
1508276096488.0847,-12.20703125,19.53125,33.69140625,35.64453125,12.6953125
1508276096491.991,-22.4609375,23.92578125,42.48046875,-16.6015625,-5.859375
1508276096495.8972,-34.1796875,23.4375,41.50390625,-1.46484375,1.953125
1508276096499.8035,-16.11328125,19.53125,33.69140625,62.98828125,-11.23046875
1508276096503.7097,1.46484375,20.5078125,29.78515625,61.03515625,-7.8125
1508276096507.616,-5.37109375,21.97265625,33.203125,13.18359375,10.25390625
1508276096511.5222,-17.578125,22.94921875,37.59765625,-5.859375,8.30078125
1508276096513.5854,-21.484375,22.4609375,34.1796875,52.24609375,29.78515625
1508276096517.4917,-17.578125,22.4609375,35.15625,64.453125,27.83203125
1508276096521.398,-13.671875,25.390625,38.57421875,14.16015625,-7.32421875
1508276096525.3042,-18.5546875,24.90234375,34.66796875,-21.97265625,-14.6484375
1508276096529.2104,-16.11328125,23.92578125,31.73828125,18.06640625,1.46484375
1508276096533.1167,3.90625,26.85546875,35.15625,56.15234375,-16.6015625
1508276096537.023,11.71875,28.3203125,39.0625,19.53125,-31.73828125
1508276096540.9292,-9.765625,32.2265625,30.76171875,-20.5078125,-8.30078125
1508276096544.8354,-18.06640625,27.34375,24.90234375,25.390625,-3.41796875
1508276096548.7417,-12.20703125,19.53125,30.76171875,66.40625,-4.39453125
1508276096552.648,-15.625,20.5078125,32.71484375,40.52734375,-7.32421875
1508276096556.5542,-32.71484375,23.92578125,33.203125,-18.06640625,-37.59765625
1508276096573.6306,-20.99609375,29.296875,35.15625,-0.48828125,-43.45703125
1508276096577.5369,4.8828125,28.80859375,31.25,55.6640625,11.71875
1508276096581.443,-2.44140625,23.92578125,32.71484375,39.55078125,24.4140625
1508276096585.3494,-15.625,23.4375,41.50390625,-0.48828125,0.48828125
1508276096589.2556,-23.92578125,24.90234375,42.96875,-16.11328125,11.23046875
1508276096593.1619,-17.578125,20.99609375,37.59765625,45.41015625,39.55078125
1508276096597.068,4.8828125,20.01953125,36.1328125,50.78125,60.546875
1508276096600.9744,-3.90625,24.90234375,35.64453125,-9.765625,22.94921875
1508276096604.8806,-30.2734375,27.34375,32.71484375,-33.69140625,-22.94921875
1508276096608.7869,-15.625,24.4140625,39.0625,7.32421875,-54.19921875
1508276096612.693,-6.8359375,24.90234375,38.57421875,44.43359375,-32.2265625
1508276096616.5994,-9.27734375,25.390625,38.57421875,41.9921875,20.99609375
1508276096618.2363,-23.92578125,24.4140625,49.8046875,-3.41796875,18.5546875
1508276096622.1426,-31.25,25.390625,51.7578125,7.8125,5.37109375
1508276096626.0488,-10.25390625,24.90234375,49.31640625,67.87109375,-11.23046875
1508276096629.955,-13.671875,27.83203125,51.26953125,53.7109375,13.671875
1508276096633.8613,-35.15625,25.390625,60.05859375,-7.32421875,21.484375
1508276096637.7676,-33.203125,24.4140625,61.03515625,-12.6953125,-6.8359375
1508276096641.6738,-20.5078125,28.3203125,51.7578125,44.921875,38.57421875
1508276096645.58,-7.32421875,29.296875,50.29296875,51.7578125,48.33984375
1508276096649.4863,-12.20703125,30.76171875,53.22265625,7.32421875,-14.16015625
1508276096653.3926,-31.25,28.80859375,58.10546875,-29.78515625,-18.5546875
1508276096657.2988,-19.04296875,29.78515625,49.31640625,7.8125,17.578125
1508276096661.205,2.44140625,29.78515625,46.38671875,62.01171875,-3.90625
1508276096678.277,-17.08984375,26.3671875,54.6875,41.015625,-1.953125
1508276096682.1833,-52.734375,27.83203125,56.15234375,-14.6484375,35.15625
1508276096686.0896,-32.2265625,31.25,54.6875,13.671875,34.66796875
1508276096689.9958,-8.30078125,36.1328125,52.734375,60.546875,37.109375
1508276096693.902,-26.85546875,33.203125,53.7109375,54.6875,26.3671875
1508276096697.8083,-43.9453125,29.78515625,54.19921875,-12.6953125,-35.15625
1508276096701.7146,-33.203125,30.76171875,47.8515625,-21.97265625,3.90625
1508276096705.6208,-13.671875,29.296875,35.64453125,38.57421875,80.56640625
1508276096709.527,-15.13671875,28.80859375,35.64453125,15.625,28.80859375
1508276096713.4333,-26.3671875,27.83203125,41.50390625,-34.66796875,-8.30078125
1508276096717.3396,-36.1328125,25.390625,35.15625,-20.99609375,-17.578125
1508276096721.2458,-26.85546875,21.484375,31.25,45.41015625,-1.46484375
1508276096708.3008,-20.99609375,20.5078125,26.85546875,52.734375,23.4375
1508276096712.207,-44.921875,21.97265625,22.94921875,-7.32421875,1.46484375
1508276096716.1133,-57.6171875,23.4375,25.390625,-31.25,-1.953125
1508276096720.0195,-30.76171875,21.97265625,27.34375,16.6015625,2.9296875
1508276096723.9258,-28.80859375,21.97265625,23.92578125,42.48046875,19.04296875
1508276096727.832,-36.1328125,24.4140625,25.87890625,26.3671875,8.7890625
1508276096731.7383,-27.34375,25.390625,24.4140625,-24.90234375,16.6015625
1508276096735.6445,-29.296875,28.80859375,19.53125,1.46484375,28.80859375
1508276096739.5508,-27.83203125,24.90234375,22.4609375,52.24609375,35.64453125
1508276096743.457,-20.99609375,20.99609375,20.01953125,27.34375,25.390625
1508276096747.3633,-32.2265625,24.4140625,20.01953125,-19.04296875,31.25
1508276096751.2695,-28.3203125,26.85546875,24.4140625,-6.8359375,27.83203125
1508276096753.3323,-16.11328125,25.87890625,24.4140625,28.80859375,8.30078125
1508276096757.2385,-23.4375,22.94921875,22.4609375,31.73828125,-5.859375
1508276096761.1448,-29.296875,22.4609375,27.34375,15.13671875,-40.0390625
1508276096765.051,-15.625,22.94921875,30.2734375,-13.18359375,-25.87890625
1508276096768.9573,14.6484375,20.5078125,27.83203125,34.66796875,-2.44140625
1508276096772.8635,-7.8125,20.99609375,26.3671875,50.29296875,26.85546875
1508276096776.7698,-38.0859375,17.08984375,26.85546875,3.41796875,55.6640625
1508276096780.676,-30.76171875,18.06640625,30.76171875,-22.4609375,5.37109375
1508276096784.5823,-15.13671875,22.4609375,27.83203125,19.04296875,-5.37109375
1508276096788.4885,-10.25390625,20.5078125,18.06640625,69.3359375,45.8984375
1508276096792.3948,-5.859375,22.4609375,19.53125,32.71484375,31.73828125
1508276096796.301,-30.76171875,25.87890625,23.92578125,-19.04296875,10.25390625
1508276096813.373,-30.2734375,23.4375,22.4609375,5.37109375,32.2265625
1508276096817.2793,-4.39453125,18.06640625,22.4609375,58.59375,33.203125
1508276096821.1855,-8.7890625,17.578125,25.390625,57.12890625,-0.48828125
1508276096825.0918,-10.7421875,22.4609375,29.78515625,-13.18359375,-12.6953125
1508276096828.998,-11.23046875,21.97265625,25.390625,-16.11328125,-0.9765625
1508276096832.9043,-4.39453125,19.04296875,22.4609375,62.01171875,-5.37109375
1508276096836.8105,8.30078125,19.04296875,23.92578125,71.2890625,-32.2265625
1508276096840.7168,0.0,20.99609375,27.34375,1.953125,-32.71484375
1508276096844.623,-15.625,20.01953125,24.90234375,-12.20703125,17.578125
1508276096848.5293,8.30078125,17.08984375,17.08984375,64.453125,35.64453125
1508276096852.4355,10.7421875,16.11328125,22.4609375,74.21875,15.13671875
1508276096856.3418,-13.18359375,15.13671875,24.90234375,26.3671875,10.7421875
1508276096858.4055,-19.53125,15.13671875,24.4140625,-11.71875,21.97265625
1508276096862.3118,-7.8125,15.625,29.296875,25.390625,5.859375
1508276096866.218,11.71875,16.6015625,30.76171875,87.40234375,21.484375
1508276096870.1243,10.25390625,20.5078125,31.73828125,65.4296875,71.77734375
1508276096874.0305,-18.06640625,20.01953125,32.71484375,-2.9296875,50.29296875
1508276096877.9368,-4.8828125,19.04296875,32.71484375,11.71875,39.0625
1508276096881.843,15.13671875,18.06640625,25.390625,45.41015625,99.12109375
1508276096885.7493,-15.625,21.484375,25.390625,45.8984375,78.125
1508276096889.6555,-21.97265625,22.94921875,34.1796875,21.97265625,39.55078125
1508276096893.5618,-9.27734375,21.97265625,35.64453125,18.06640625,50.78125
1508276096897.468,0.48828125,21.97265625,37.109375,45.8984375,49.8046875
1508276096901.3743,5.859375,19.04296875,34.66796875,47.8515625,41.015625
1508276096888.4263,-6.34765625,19.53125,27.83203125,17.578125,28.80859375
1508276096892.3325,-23.92578125,20.01953125,28.80859375,-20.99609375,-21.484375
1508276096896.2388,-18.5546875,20.5078125,30.76171875,27.34375,-38.0859375
1508276096900.145,3.90625,19.04296875,24.90234375,61.5234375,6.8359375
1508276096904.0513,-6.34765625,17.08984375,24.4140625,42.96875,35.64453125
1508276096907.9575,-15.13671875,18.5546875,30.76171875,4.39453125,10.7421875
1508276096911.8638,-4.8828125,20.01953125,27.83203125,24.4140625,25.390625
1508276096915.77,11.71875,18.5546875,27.34375,61.5234375,64.94140625
1508276096919.6763,3.90625,18.06640625,20.99609375,59.08203125,41.9921875
1508276096923.5825,-20.5078125,18.5546875,17.578125,15.13671875,19.53125
1508276096927.4888,-19.04296875,21.97265625,25.390625,-10.7421875,16.6015625
1508276096931.395,-11.23046875,22.4609375,22.4609375,39.0625,22.4609375
1508276096948.9731,-19.53125,21.484375,19.04296875,53.22265625,-1.953125
1508276096952.8794,-34.66796875,26.3671875,18.5546875,-2.9296875,-22.94921875
1508276096956.7856,-23.92578125,25.87890625,24.90234375,-8.30078125,-5.859375
1508276096960.692,4.8828125,27.83203125,30.76171875,48.33984375,41.9921875
1508276096964.5981,3.90625,29.296875,33.203125,65.4296875,49.8046875
1508276096968.5044,-23.92578125,28.80859375,40.52734375,12.20703125,1.46484375
1508276096972.4106,-26.85546875,32.71484375,40.0390625,-21.484375,12.6953125
1508276096976.317,-19.04296875,32.71484375,33.203125,47.8515625,44.921875
1508276096980.2231,-16.6015625,31.25,32.2265625,74.70703125,38.0859375
1508276096984.1294,-15.625,30.2734375,35.64453125,29.296875,34.66796875
1508276096988.0356,-26.3671875,31.25,36.1328125,-5.37109375,38.0859375
1508276096991.942,-32.71484375,33.203125,30.2734375,19.04296875,35.15625
1508276097008.585,-11.71875,36.1328125,27.34375,52.24609375,21.97265625
1508276097012.4912,-12.6953125,33.69140625,33.203125,32.71484375,22.4609375
1508276097016.3975,-44.43359375,35.64453125,35.64453125,-14.6484375,31.73828125
1508276097020.3037,-35.15625,39.0625,20.5078125,-2.44140625,-0.48828125
1508276097024.21,-11.71875,37.59765625,17.578125,55.17578125,15.625
1508276097028.1162,-15.13671875,35.64453125,28.3203125,42.48046875,24.90234375
1508276097032.0225,-35.64453125,41.015625,33.69140625,-10.25390625,5.37109375
1508276097035.9287,-51.26953125,41.9921875,30.76171875,-27.83203125,13.18359375
1508276097039.835,-27.34375,38.57421875,24.90234375,26.85546875,40.52734375
1508276097043.7412,-7.8125,40.52734375,23.4375,33.69140625,39.0625
1508276097047.6475,-10.25390625,40.52734375,24.90234375,-2.9296875,46.38671875
1508276097051.5537,-15.625,45.8984375,26.85546875,-20.5078125,3.41796875
1508276097038.6064,-24.4140625,48.828125,24.4140625,21.97265625,-13.18359375
1508276097042.5127,-31.25,45.8984375,31.25,49.8046875,23.4375
1508276097046.419,-25.87890625,45.41015625,35.15625,18.06640625,23.4375
1508276097050.3252,-20.99609375,44.43359375,37.59765625,-23.4375,-11.71875
1508276097054.2314,-42.48046875,42.96875,39.55078125,0.48828125,-43.45703125
1508276097058.1377,-32.71484375,46.875,39.0625,44.43359375,-10.25390625
1508276097062.044,-16.11328125,52.24609375,39.55078125,33.203125,62.5
1508276097065.9502,-34.1796875,52.734375,39.55078125,-19.53125,27.83203125
1508276097069.8564,-31.73828125,55.17578125,37.59765625,-39.0625,-48.828125
1508276097073.7627,-9.765625,53.7109375,34.1796875,30.2734375,5.37109375
1508276097077.669,-20.01953125,51.26953125,32.71484375,53.7109375,57.6171875
1508276097081.5752,-28.3203125,47.8515625,29.78515625,5.859375,46.875
1508276097083.138,-25.87890625,49.31640625,37.109375,-39.55078125,0.0
1508276097087.0442,-24.90234375,49.31640625,35.15625,12.20703125,-11.71875
1508276097090.9504,-19.04296875,43.45703125,25.87890625,66.89453125,4.39453125
1508276097094.8567,-34.1796875,46.38671875,28.3203125,6.8359375,-1.46484375
1508276097098.763,-37.109375,49.31640625,33.203125,-37.109375,-15.13671875
1508276097102.6692,-16.11328125,50.29296875,33.69140625,14.6484375,-7.8125
1508276097106.5754,-17.08984375,44.43359375,33.203125,45.8984375,11.71875
1508276097110.4817,-24.90234375,42.48046875,37.109375,45.41015625,-19.53125
1508276097114.388,-37.109375,45.41015625,40.0390625,-21.97265625,-37.59765625
1508276097118.2942,-49.8046875,43.9453125,34.66796875,-35.64453125,-58.59375
1508276097122.2004,-32.2265625,42.48046875,34.1796875,41.015625,-56.15234375
1508276097126.1067,-22.94921875,41.50390625,36.62109375,42.48046875,-28.3203125
1508276097143.2266,-43.45703125,42.48046875,37.59765625,-16.6015625,-22.94921875
1508276097147.1328,-38.0859375,42.48046875,37.59765625,-17.578125,-19.53125
1508276097151.039,-33.203125,44.43359375,35.64453125,53.7109375,-11.71875
1508276097154.9453,-20.5078125,45.8984375,34.66796875,45.8984375,-23.92578125
1508276097158.8516,-22.94921875,47.36328125,33.69140625,-21.484375,-45.41015625
1508276097162.7578,-49.31640625,45.8984375,36.1328125,-27.83203125,-32.2265625
1508276097166.664,-31.25,44.43359375,36.62109375,27.34375,-27.34375
1508276097170.5703,-15.13671875,43.9453125,42.48046875,42.96875,-65.91796875
1508276097174.4766,-37.109375,43.45703125,46.38671875,6.34765625,-45.8984375
1508276097178.3828,-48.33984375,43.45703125,43.45703125,-16.11328125,3.41796875
1508276097182.289,-19.04296875,43.45703125,41.50390625,0.0,-13.671875
1508276097186.1953,-14.16015625,43.45703125,41.50390625,43.45703125,-14.6484375
1508276097173.2478,-21.484375,43.45703125,39.55078125,37.59765625,28.80859375
1508276097177.154,-45.8984375,44.921875,39.0625,-19.53125,0.0
1508276097181.0603,-37.59765625,42.48046875,44.43359375,-3.41796875,-26.85546875
1508276097184.9666,-7.32421875,41.015625,47.36328125,55.6640625,17.08984375
1508276097188.8728,-16.11328125,41.9921875,41.50390625,46.875,44.921875
1508276097192.779,-21.484375,41.50390625,38.57421875,-11.23046875,4.39453125
1508276097196.6853,-15.625,41.50390625,46.875,-34.1796875,-17.578125
1508276097200.5916,-28.80859375,38.0859375,51.7578125,20.01953125,-6.8359375
1508276097204.4978,-36.62109375,36.62109375,46.38671875,50.29296875,13.671875
1508276097208.404,-37.109375,35.64453125,42.96875,20.01953125,-9.765625
1508276097212.3103,-37.59765625,35.64453125,48.828125,-5.37109375,-49.8046875
1508276097216.2166,-24.4140625,39.55078125,53.22265625,10.25390625,-26.3671875
1508276097218.2595,1.953125,39.0625,51.26953125,33.69140625,-15.13671875
1508276097222.1658,-11.71875,40.0390625,47.36328125,31.25,-56.640625
1508276097226.072,-41.015625,43.45703125,49.31640625,-18.5546875,-87.890625
1508276097229.9783,-10.7421875,42.96875,46.38671875,-6.8359375,-45.41015625
1508276097233.8845,13.671875,40.52734375,40.0390625,67.3828125,-6.34765625
1508276097237.7908,-1.46484375,40.0390625,44.921875,64.453125,-4.39453125
1508276097241.697,-33.203125,41.50390625,55.17578125,-18.5546875,-18.06640625
1508276097245.6033,-31.25,36.62109375,52.24609375,-40.0390625,-31.73828125
1508276097249.5095,4.8828125,37.59765625,43.9453125,37.59765625,-17.08984375
1508276097253.4158,-3.90625,41.50390625,45.8984375,61.03515625,0.0
1508276097257.322,-34.1796875,37.59765625,47.8515625,-1.46484375,-8.30078125
1508276097261.2283,-34.1796875,38.0859375,48.828125,-9.27734375,-18.06640625
1508276097263.3118,1.46484375,38.57421875,45.8984375,49.31640625,-19.04296875
1508276097267.218,-2.9296875,35.15625,42.96875,49.31640625,-12.20703125
1508276097271.1243,-30.2734375,34.66796875,47.36328125,11.23046875,-4.8828125
1508276097275.0305,-40.52734375,36.1328125,47.36328125,-12.20703125,-12.6953125
1508276097278.9368,-14.6484375,38.57421875,43.45703125,27.83203125,0.9765625
1508276097282.843,6.8359375,37.109375,47.36328125,62.5,5.37109375
1508276097286.7493,-17.578125,38.57421875,49.31640625,23.4375,-20.01953125
1508276097290.6555,-41.015625,39.0625,44.43359375,-22.94921875,-11.23046875
1508276097294.5618,-18.06640625,36.1328125,39.55078125,10.7421875,-14.16015625
1508276097298.468,-1.46484375,38.0859375,37.59765625,48.828125,-9.27734375
1508276097302.3743,-20.01953125,36.1328125,39.55078125,48.33984375,12.20703125
1508276097306.2805,-29.78515625,35.64453125,43.45703125,5.37109375,40.52734375
1508276097323.334,-25.87890625,40.0390625,42.96875,-4.8828125,9.765625
1508276097327.2402,-16.11328125,37.59765625,38.57421875,54.6875,0.0
1508276097331.1465,-8.7890625,36.62109375,42.96875,52.24609375,-6.34765625
1508276097335.0527,-6.34765625,40.52734375,45.8984375,14.16015625,-27.83203125
1508276097338.959,-26.3671875,37.59765625,40.0390625,-11.71875,-17.08984375
1508276097342.8652,-14.16015625,35.15625,43.45703125,36.1328125,-40.52734375
1508276097346.7715,25.87890625,38.0859375,44.921875,57.6171875,-41.015625
1508276097350.6777,4.8828125,37.59765625,44.921875,22.4609375,10.7421875
1508276097354.584,-34.66796875,37.109375,50.78125,6.8359375,-15.13671875
1508276097358.4902,-26.85546875,39.0625,51.26953125,25.87890625,-47.8515625
1508276097362.3965,-4.8828125,39.55078125,46.38671875,59.5703125,0.0
1508276097366.3027,-4.8828125,38.57421875,41.9921875,54.19921875,36.62109375
1508276097368.366,-16.11328125,40.52734375,46.875,4.39453125,-18.06640625
1508276097372.2722,-23.4375,41.50390625,51.26953125,13.18359375,-12.20703125
1508276097376.1785,-25.390625,40.0390625,45.41015625,52.734375,26.3671875
1508276097380.0847,-21.484375,39.55078125,42.96875,49.8046875,4.8828125
1508276097383.991,-16.6015625,39.55078125,40.0390625,12.20703125,-14.6484375
1508276097387.8972,-22.94921875,40.0390625,40.0390625,2.44140625,-27.34375
1508276097391.8035,-25.390625,38.57421875,41.50390625,43.45703125,19.53125
1508276097395.7097,-9.765625,37.109375,38.0859375,55.17578125,-31.73828125
1508276097399.616,-19.04296875,39.0625,43.9453125,8.7890625,-76.66015625
1508276097403.5222,-32.2265625,43.45703125,43.9453125,-18.06640625,-47.36328125
1508276097407.4285,-10.25390625,43.45703125,36.1328125,39.55078125,-43.9453125
1508276097411.3347,15.625,42.96875,37.109375,63.4765625,-35.15625
1508276097413.4182,-1.46484375,45.8984375,39.0625,24.90234375,4.8828125
1508276097417.3245,-32.2265625,45.41015625,40.0390625,-14.16015625,20.01953125
1508276097421.2307,-15.13671875,45.41015625,40.0390625,31.73828125,21.484375
1508276097425.137,-1.46484375,45.41015625,39.55078125,69.3359375,18.06640625
1508276097429.0432,-22.94921875,43.45703125,42.48046875,56.640625,-2.44140625
1508276097432.9495,-40.0390625,43.9453125,45.8984375,3.41796875,8.30078125
1508276097436.8557,-19.04296875,47.36328125,44.43359375,-12.20703125,-18.5546875
1508276097440.762,-15.625,47.8515625,40.0390625,55.6640625,-1.953125
1508276097444.6682,-26.3671875,45.8984375,43.9453125,54.19921875,52.24609375
1508276097448.5745,-30.2734375,45.41015625,48.828125,-11.23046875,18.5546875
1508276097452.4807,-33.203125,44.43359375,41.9921875,0.9765625,-13.671875
1508276097456.387,-15.13671875,40.52734375,40.0390625,52.734375,-18.5546875
1508276097458.43,-12.6953125,38.57421875,41.015625,57.12890625,55.6640625
1508276097462.3362,-30.76171875,40.0390625,41.015625,22.94921875,68.84765625
1508276097466.2424,-35.15625,43.45703125,44.43359375,-14.16015625,-7.8125
1508276097470.1487,-29.296875,44.43359375,42.96875,29.296875,-6.8359375
1508276097474.055,-25.390625,41.9921875,41.50390625,60.05859375,12.20703125
1508276097477.9612,-27.34375,41.50390625,39.55078125,29.78515625,-14.16015625
1508276097481.8674,-34.1796875,40.0390625,38.57421875,-10.25390625,-13.18359375
1508276097485.7737,-27.83203125,38.0859375,38.0859375,23.4375,-11.23046875
1508276097489.68,-6.34765625,39.55078125,34.1796875,56.640625,-17.08984375
1508276097493.5862,3.90625,41.015625,30.2734375,34.1796875,16.6015625
1508276097497.4924,-40.0390625,39.55078125,35.64453125,-1.46484375,23.92578125
1508276097501.3987,-42.48046875,36.62109375,41.9921875,2.44140625,11.23046875
1508276097503.4622,-20.5078125,34.66796875,36.1328125,43.45703125,43.45703125
1508276097507.3684,-20.99609375,35.15625,33.203125,62.98828125,26.3671875
1508276097511.2747,-21.97265625,37.109375,37.109375,22.4609375,-12.20703125
1508276097515.181,-34.66796875,38.0859375,39.55078125,-23.92578125,12.6953125
1508276097519.0872,-37.109375,37.109375,36.1328125,29.296875,27.34375
1508276097522.9934,-42.48046875,38.0859375,37.109375,57.6171875,2.9296875
1508276097526.8997,-48.828125,36.1328125,36.62109375,-0.9765625,-11.71875
1508276097530.806,-45.8984375,36.62109375,32.2265625,-33.69140625,-30.2734375
1508276097534.7122,-39.0625,41.9921875,36.62109375,11.71875,-21.484375
1508276097538.6184,-23.4375,40.0390625,36.1328125,47.36328125,18.5546875
1508276097542.5247,-27.83203125,39.0625,38.0859375,41.50390625,0.0
1508276097546.431,-56.640625,40.0390625,43.9453125,2.9296875,-36.62109375
1508276097548.527,-48.33984375,37.59765625,42.48046875,11.71875,-31.25
1508276097552.4333,-20.5078125,36.1328125,35.15625,54.19921875,-29.78515625
1508276097556.3396,-28.3203125,31.73828125,35.64453125,45.8984375,-60.546875
1508276097560.2458,-16.6015625,34.66796875,38.57421875,-4.39453125,-60.546875
1508276097564.152,-21.97265625,39.0625,36.62109375,-2.9296875,-37.109375
1508276097568.0583,-42.48046875,35.64453125,38.0859375,52.24609375,-22.4609375
1508276097571.9646,-26.85546875,37.109375,41.50390625,60.546875,-13.18359375
1508276097575.8708,-26.3671875,42.48046875,45.41015625,4.8828125,-32.2265625
1508276097579.777,-35.64453125,42.96875,41.9921875,-22.4609375,-47.36328125
1508276097583.6833,-18.06640625,39.55078125,36.62109375,40.52734375,-19.04296875
1508276097587.5896,5.859375,40.0390625,37.109375,69.82421875,0.9765625
1508276097591.4958,-13.18359375,43.9453125,41.50390625,30.2734375,-23.92578125
1508276097593.5488,-39.55078125,47.8515625,43.45703125,0.9765625,-58.10546875
1508276097597.455,-30.76171875,51.26953125,41.015625,52.24609375,-24.4140625
1508276097601.3613,-0.48828125,51.26953125,41.50390625,70.3125,21.484375
1508276097605.2676,-14.6484375,50.78125,43.45703125,29.78515625,49.31640625
1508276097609.1738,-54.6875,51.7578125,42.48046875,-11.71875,29.78515625
1508276097613.08,-43.45703125,49.8046875,46.875,6.8359375,25.390625
1508276097616.9863,-14.6484375,46.875,51.26953125,43.45703125,21.97265625
1508276097620.8926,-9.27734375,46.875,47.36328125,13.18359375,-16.6015625
1508276097624.7988,-40.0390625,47.8515625,39.55078125,-10.25390625,-11.71875
1508276097628.705,-47.8515625,47.8515625,37.109375,7.8125,-23.92578125
1508276097632.6113,-35.15625,47.8515625,41.50390625,42.96875,-16.6015625
1508276097636.5176,-34.66796875,47.36328125,47.8515625,55.17578125,19.53125
1508276097638.5815,-34.66796875,44.43359375,47.8515625,20.01953125,19.04296875
1508276097642.4878,-31.25,43.9453125,45.41015625,-7.32421875,-27.83203125
1508276097646.394,-28.80859375,42.96875,41.9921875,41.50390625,-44.921875
1508276097650.3003,-36.1328125,37.109375,42.96875,55.17578125,-16.6015625
1508276097654.2065,-52.24609375,39.55078125,44.43359375,4.39453125,-45.41015625
1508276097658.1128,-46.875,39.55078125,44.43359375,-20.01953125,-56.640625
1508276097662.019,-26.3671875,38.57421875,43.9453125,3.41796875,-66.89453125
1508276097665.9253,-20.99609375,38.57421875,36.1328125,36.62109375,-72.265625
1508276097669.8315,-34.1796875,33.203125,39.55078125,41.50390625,-5.37109375
1508276097673.7378,-50.78125,31.73828125,48.33984375,-13.18359375,17.578125
1508276097677.644,-51.26953125,34.1796875,47.8515625,-7.32421875,-2.44140625
1508276097681.5503,-41.9921875,33.69140625,41.9921875,51.26953125,27.83203125
1508276097698.6406,-22.4609375,32.71484375,41.015625,57.12890625,27.83203125
1508276097702.5469,-44.43359375,34.1796875,41.9921875,-1.46484375,5.37109375
1508276097706.4531,-62.98828125,32.2265625,48.33984375,-23.4375,-1.953125
1508276097710.3594,-38.57421875,30.76171875,41.9921875,27.83203125,-21.97265625
1508276097714.2656,-35.15625,33.69140625,30.2734375,54.19921875,-22.4609375
1508276097718.1719,-35.15625,35.15625,36.62109375,-1.46484375,-50.78125
1508276097722.0781,-37.59765625,39.0625,40.52734375,-49.8046875,-48.828125
1508276097725.9844,-35.64453125,33.69140625,35.64453125,27.34375,36.1328125
1508276097729.8906,-7.32421875,29.78515625,39.0625,66.89453125,1.46484375
1508276097733.7969,-32.2265625,36.1328125,37.59765625,13.18359375,-49.31640625
1508276097737.7031,-73.2421875,37.109375,35.15625,-43.45703125,-31.25
1508276097741.6094,-52.24609375,37.109375,33.203125,-7.8125,-19.53125
1508276097743.1536,-31.25,35.15625,33.69140625,31.25,-10.25390625
1508276097747.0598,-38.0859375,32.2265625,35.15625,7.32421875,-15.625
1508276097750.966,-43.45703125,37.59765625,35.64453125,-34.1796875,-19.04296875
1508276097754.8723,-46.38671875,36.62109375,39.0625,-19.53125,-38.0859375
1508276097758.7786,-34.66796875,31.73828125,37.109375,41.50390625,-1.953125
1508276097762.6848,-29.78515625,33.203125,35.64453125,27.83203125,0.0
1508276097766.591,-50.78125,39.0625,35.15625,-20.5078125,-5.37109375
1508276097770.4973,-32.2265625,34.66796875,35.15625,-20.5078125,5.37109375
1508276097774.4036,-10.25390625,28.3203125,37.109375,21.97265625,-0.9765625
1508276097778.3098,-29.296875,30.76171875,35.64453125,24.4140625,-38.57421875
1508276097782.216,-37.59765625,30.76171875,24.90234375,-11.23046875,-18.5546875
1508276097786.1223,-37.59765625,30.76171875,27.34375,-20.01953125,-10.7421875
1508276097789.186,-40.0390625,32.71484375,33.69140625,3.90625,-45.8984375
1508276097793.0923,-30.76171875,29.78515625,33.69140625,41.50390625,-39.0625
1508276097796.9985,-34.1796875,22.4609375,33.69140625,26.3671875,-25.87890625
1508276097800.9048,-42.48046875,25.390625,36.1328125,-28.3203125,-17.578125
1508276097804.811,-22.94921875,25.390625,37.109375,12.20703125,0.9765625
1508276097808.7173,-16.11328125,22.94921875,35.64453125,52.734375,-3.41796875
1508276097812.6235,-23.4375,23.4375,39.0625,17.08984375,-5.859375
1508276097816.5298,-33.69140625,26.3671875,38.57421875,-11.71875,-15.13671875
1508276097820.436,-31.25,29.78515625,35.15625,-1.46484375,-51.26953125
1508276097824.3423,-16.6015625,28.80859375,31.73828125,34.1796875,-41.9921875
1508276097828.2485,-15.625,28.3203125,33.69140625,44.921875,-13.671875
1508276097832.1548,-12.20703125,29.78515625,40.52734375,28.80859375,-14.6484375
1508276097833.2375,-24.90234375,28.3203125,42.96875,4.8828125,-11.23046875
1508276097837.1438,-16.6015625,27.83203125,39.0625,43.45703125,2.9296875
1508276097841.05,-8.30078125,28.3203125,37.109375,72.75390625,-5.859375
1508276097844.9563,-14.16015625,30.76171875,39.0625,24.4140625,-22.4609375
1508276097848.8625,-20.01953125,33.69140625,37.59765625,-14.6484375,-35.15625
1508276097852.7688,-6.8359375,35.64453125,37.59765625,24.90234375,-19.04296875
1508276097856.675,-11.71875,37.59765625,38.57421875,75.1953125,13.18359375
1508276097860.5813,-24.4140625,35.64453125,38.57421875,54.19921875,12.20703125
1508276097864.4875,-15.625,37.59765625,41.9921875,2.9296875,-53.22265625
1508276097868.3938,-21.97265625,40.52734375,40.0390625,16.6015625,-53.7109375
1508276097872.3,-2.9296875,35.15625,37.109375,58.59375,9.27734375
1508276097876.2063,14.16015625,34.66796875,36.62109375,50.78125,7.8125
1508276097878.249,-4.39453125,38.57421875,39.0625,-2.9296875,6.34765625
1508276097882.1553,-24.90234375,37.59765625,41.015625,10.25390625,59.5703125
1508276097886.0615,-21.484375,35.64453125,41.50390625,66.89453125,49.8046875
1508276097889.9678,-5.37109375,38.0859375,41.50390625,49.8046875,23.4375
1508276097893.874,-0.9765625,38.57421875,41.50390625,9.765625,27.83203125
1508276097897.7803,-21.484375,36.1328125,42.48046875,1.46484375,38.57421875
1508276097901.6865,-11.71875,35.64453125,37.109375,42.96875,50.29296875
1508276097905.5928,12.20703125,36.1328125,38.57421875,61.5234375,23.4375
1508276097909.499,-10.25390625,38.57421875,41.50390625,17.08984375,18.5546875
1508276097913.4053,-28.80859375,39.55078125,37.59765625,-3.90625,40.0390625
1508276097917.3115,-21.484375,33.69140625,32.71484375,49.8046875,48.828125
1508276097921.2178,1.46484375,29.78515625,27.34375,62.5,20.5078125
1508276097923.283,3.90625,32.71484375,27.34375,31.73828125,20.99609375
1508276097927.1892,-13.671875,39.0625,29.296875,-3.90625,34.1796875
1508276097931.0955,-13.671875,38.57421875,27.83203125,14.16015625,-20.99609375
1508276097935.0017,6.8359375,33.203125,27.34375,66.89453125,-16.6015625
1508276097938.908,6.34765625,33.69140625,30.2734375,57.6171875,9.27734375
1508276097942.8142,-5.859375,34.1796875,35.64453125,11.23046875,13.671875
1508276097946.7205,1.953125,36.62109375,40.52734375,8.30078125,35.64453125
1508276097950.6267,-2.44140625,38.57421875,31.73828125,40.0390625,17.578125
1508276097954.533,-20.99609375,37.109375,22.4609375,48.33984375,20.01953125
1508276097958.4392,-19.53125,38.57421875,25.87890625,22.94921875,6.8359375
1508276097962.3455,-23.4375,41.9921875,28.3203125,-6.34765625,7.32421875
1508276097966.2517,-6.34765625,38.57421875,27.34375,35.64453125,48.828125
1508276097968.315,10.25390625,36.62109375,24.90234375,64.453125,27.34375
1508276097972.2212,-12.20703125,38.57421875,27.83203125,35.64453125,21.97265625
1508276097976.1274,-35.15625,41.50390625,32.2265625,-17.08984375,-22.4609375
1508276097980.0337,-34.66796875,41.015625,25.87890625,12.20703125,-19.04296875
1508276097983.94,-9.27734375,38.0859375,24.90234375,69.3359375,35.15625
1508276097987.8462,-1.953125,35.15625,27.34375,41.015625,-17.08984375
1508276097991.7524,-28.80859375,35.64453125,34.66796875,-17.578125,-39.0625
1508276097995.6587,-35.64453125,37.109375,34.66796875,-16.6015625,-19.04296875
1508276097999.565,-18.5546875,33.69140625,19.04296875,46.38671875,-2.9296875
1508276098003.4712,-11.71875,31.25,21.484375,57.6171875,20.99609375
1508276098007.3774,-22.94921875,31.73828125,31.25,-4.39453125,45.41015625
1508276098011.2837,-43.9453125,31.73828125,28.80859375,-13.671875,26.85546875
1508276098013.3452,-42.96875,32.2265625,24.90234375,48.828125,26.85546875
1508276098017.2515,-23.92578125,32.2265625,31.25,57.6171875,57.12890625
1508276098021.1577,-27.83203125,35.64453125,36.1328125,16.6015625,10.25390625
1508276098025.064,-38.57421875,39.55078125,33.69140625,-9.765625,-6.34765625
1508276098028.9702,-35.15625,34.66796875,25.390625,26.85546875,14.6484375
1508276098032.8765,-25.390625,32.2265625,21.97265625,59.08203125,24.90234375
1508276098036.7827,-28.80859375,38.57421875,33.69140625,18.5546875,15.625
1508276098040.689,-36.62109375,40.52734375,34.66796875,-22.94921875,-15.625
1508276098044.5952,-36.1328125,39.0625,30.2734375,17.08984375,-2.9296875
1508276098048.5015,-35.64453125,39.55078125,33.203125,47.36328125,12.20703125
1508276098052.4077,-32.2265625,34.1796875,41.015625,35.15625,32.2265625
1508276098056.314,-47.8515625,34.1796875,36.62109375,-8.30078125,54.6875
1508276098073.3918,-62.01171875,41.015625,26.3671875,3.90625,52.734375
1508276098077.298,-26.85546875,42.96875,28.3203125,49.31640625,52.734375
1508276098081.2043,-21.97265625,42.96875,28.3203125,36.1328125,81.54296875
1508276098085.1106,-44.921875,42.48046875,30.76171875,-3.41796875,67.3828125
1508276098089.0168,-51.26953125,41.50390625,36.1328125,-18.5546875,23.4375
1508276098092.923,-30.2734375,46.38671875,41.9921875,41.015625,11.71875
1508276098096.8293,-9.765625,47.8515625,39.0625,57.12890625,34.1796875
1508276098100.7356,-23.4375,43.9453125,38.57421875,15.625,23.92578125
1508276098104.6418,-28.80859375,43.9453125,41.9921875,-12.20703125,0.0
1508276098108.548,-12.20703125,41.9921875,42.48046875,15.13671875,13.671875
1508276098112.4543,-26.85546875,39.0625,41.015625,42.96875,24.90234375
1508276098116.3606,-45.8984375,37.59765625,38.0859375,41.015625,49.8046875
1508276098118.4407,-42.48046875,38.57421875,40.52734375,6.34765625,41.50390625
1508276098122.347,-43.45703125,38.57421875,33.69140625,11.71875,4.39453125
1508276098126.2532,-29.78515625,37.109375,28.3203125,28.80859375,2.9296875
1508276098130.1594,-24.4140625,37.109375,31.73828125,20.01953125,31.25
1508276098134.0657,-38.57421875,37.109375,40.0390625,-11.23046875,28.80859375
1508276098137.972,-29.78515625,37.59765625,42.48046875,-13.671875,-21.484375
1508276098141.8782,-0.9765625,39.55078125,38.57421875,32.2265625,1.953125
1508276098145.7844,1.953125,41.015625,35.15625,44.921875,71.77734375
1508276098149.6907,-27.83203125,39.55078125,36.1328125,0.9765625,34.1796875
1508276098153.597,-47.36328125,35.64453125,41.015625,-45.8984375,-60.546875
1508276098157.5032,-38.0859375,31.73828125,38.0859375,13.18359375,-26.3671875
1508276098161.4094,-22.4609375,32.71484375,38.0859375,70.3125,44.43359375
1508276098163.4531,-26.85546875,32.71484375,41.9921875,15.625,12.6953125
1508276098167.3594,-42.48046875,28.3203125,47.8515625,-32.2265625,-12.20703125
1508276098171.2656,-12.6953125,33.203125,43.45703125,36.62109375,33.69140625
1508276098175.1719,2.9296875,35.15625,42.96875,82.51953125,30.2734375
1508276098179.0781,13.671875,38.57421875,44.43359375,42.96875,18.5546875
1508276098182.9844,15.625,42.48046875,44.921875,-2.44140625,25.390625
1508276098186.8906,-18.06640625,39.55078125,50.29296875,20.5078125,12.6953125
1508276098190.7969,-2.9296875,36.62109375,47.8515625,85.9375,47.36328125
1508276098194.7031,20.99609375,36.62109375,48.33984375,76.171875,24.4140625
1508276098198.6094,4.39453125,37.109375,51.7578125,27.83203125,-30.2734375
1508276098202.5156,-1.46484375,35.15625,47.8515625,44.43359375,-11.23046875
1508276098206.4219,22.4609375,35.64453125,48.33984375,83.49609375,-20.01953125
1508276098208.4849,23.92578125,36.62109375,47.36328125,83.49609375,-11.71875
1508276098212.391,6.8359375,37.59765625,41.9921875,51.26953125,28.80859375
1508276098216.2974,9.27734375,38.57421875,41.50390625,23.92578125,16.6015625
1508276098220.2036,25.87890625,40.52734375,39.0625,67.87109375,-12.6953125
1508276098224.1099,11.71875,40.52734375,34.66796875,89.35546875,0.0
1508276098228.016,10.7421875,38.57421875,43.45703125,58.10546875,5.37109375
1508276098231.9224,-1.953125,39.55078125,46.875,14.6484375,-12.20703125
1508276098235.8286,-7.8125,40.0390625,38.57421875,41.9921875,-28.80859375
1508276098239.7349,24.90234375,39.55078125,40.0390625,64.94140625,-63.4765625
1508276098243.641,18.06640625,41.50390625,37.109375,48.33984375,-17.08984375
1508276098247.5474,-8.7890625,42.96875,32.2265625,34.1796875,20.5078125
1508276098251.4536,4.8828125,40.52734375,32.2265625,42.96875,3.90625
1508276098268.5266,31.73828125,41.015625,31.25,82.03125,4.8828125
1508276098272.4329,16.11328125,43.9453125,27.34375,76.171875,-5.859375
1508276098276.339,0.0,44.921875,32.2265625,17.08984375,0.48828125
1508276098280.2454,20.5078125,43.45703125,38.57421875,2.44140625,5.859375
1508276098284.1516,31.25,40.52734375,38.0859375,61.5234375,7.8125
1508276098288.0579,20.99609375,39.55078125,41.50390625,74.21875,7.8125
1508276098291.964,-4.39453125,38.0859375,44.921875,19.53125,8.30078125
1508276098295.8704,-7.8125,37.59765625,47.36328125,-8.7890625,-35.64453125
1508276098299.7766,0.9765625,36.1328125,38.57421875,51.26953125,-35.15625
1508276098303.6829,7.32421875,35.64453125,34.66796875,81.0546875,49.31640625
1508276098307.589,7.8125,36.1328125,42.48046875,57.12890625,36.62109375
1508276098311.4954,-5.859375,36.62109375,45.8984375,25.87890625,6.8359375
1508276098298.5518,2.9296875,36.1328125,47.36328125,37.109375,30.2734375
1508276098302.458,10.25390625,32.71484375,46.875,76.66015625,60.546875
1508276098306.3643,29.296875,33.203125,49.8046875,70.3125,51.26953125
1508276098310.2705,15.13671875,36.62109375,50.78125,12.20703125,12.20703125
1508276098314.1768,-11.23046875,38.0859375,49.31640625,13.671875,-27.34375
1508276098318.083,20.01953125,34.66796875,47.8515625,73.73046875,16.11328125
1508276098321.9893,24.4140625,33.203125,47.8515625,80.56640625,82.03125
1508276098325.8955,-1.953125,34.1796875,51.26953125,18.5546875,26.85546875
1508276098329.8018,-6.34765625,35.15625,52.24609375,20.01953125,31.73828125
1508276098333.708,15.625,34.66796875,46.38671875,75.1953125,88.8671875
1508276098337.6143,26.85546875,34.1796875,41.50390625,77.63671875,63.4765625
1508276098341.5205,12.20703125,38.0859375,44.921875,32.71484375,26.85546875
1508276098343.5796,-12.20703125,41.9921875,43.9453125,-4.39453125,15.13671875
1508276098347.4858,2.44140625,40.0390625,40.52734375,48.828125,34.1796875
1508276098351.392,15.625,38.0859375,39.0625,67.87109375,47.36328125
1508276098355.2983,0.48828125,40.52734375,38.57421875,41.015625,62.98828125
1508276098359.2046,-6.34765625,40.0390625,41.50390625,8.7890625,58.10546875
1508276098363.1108,11.71875,41.015625,42.48046875,33.203125,84.47265625
1508276098367.017,17.08984375,41.50390625,41.9921875,62.01171875,73.73046875
1508276098370.9233,13.18359375,41.015625,43.9453125,47.8515625,3.41796875
1508276098374.8296,0.48828125,43.9453125,38.57421875,4.8828125,-4.8828125
1508276098378.7358,-20.01953125,43.45703125,36.62109375,-5.859375,-7.8125
1508276098382.642,-10.7421875,38.57421875,35.15625,61.03515625,20.01953125
1508276098386.5483,4.8828125,36.1328125,29.296875,67.87109375,0.48828125
1508276098388.6116,-11.71875,36.62109375,34.1796875,-1.953125,-2.44140625
1508276098392.5178,-19.04296875,41.50390625,39.0625,-23.92578125,20.5078125
1508276098396.424,6.8359375,41.50390625,35.15625,35.15625,-1.953125
1508276098400.3303,-4.8828125,38.57421875,28.3203125,31.73828125,16.6015625
1508276098404.2366,-22.4609375,39.55078125,25.390625,-5.37109375,44.921875
1508276098408.1428,-33.69140625,41.9921875,32.71484375,-24.90234375,-5.37109375
1508276098412.049,-23.92578125,41.9921875,36.1328125,5.37109375,-41.015625
1508276098415.9553,0.48828125,40.0390625,29.296875,52.24609375,7.32421875
1508276098419.8616,-4.8828125,38.0859375,24.4140625,51.7578125,37.59765625
1508276098423.7678,-26.85546875,40.52734375,28.80859375,-5.37109375,15.13671875
1508276098427.674,-20.5078125,42.96875,32.71484375,4.39453125,-1.46484375
1508276098431.5803,5.37109375,39.55078125,33.203125,47.36328125,-3.90625
1508276098448.1538,5.37109375,38.0859375,33.69140625,45.8984375,41.015625
1508276098452.06,-20.01953125,37.109375,37.109375,-10.25390625,73.2421875
1508276098455.9663,-26.3671875,38.57421875,38.57421875,-13.671875,45.8984375
1508276098459.8726,-10.7421875,42.48046875,33.69140625,35.64453125,27.34375
1508276098463.7788,-7.8125,40.0390625,30.2734375,45.8984375,42.48046875
1508276098467.685,-15.13671875,42.48046875,35.15625,1.46484375,56.15234375
1508276098471.5913,-19.53125,48.33984375,38.57421875,-26.3671875,57.12890625
1508276098475.4976,-29.78515625,44.43359375,34.66796875,21.484375,46.875
1508276098479.4038,-21.484375,41.9921875,36.62109375,40.52734375,29.78515625
1508276098483.31,-34.1796875,46.38671875,44.43359375,1.46484375,49.31640625
1508276098487.2163,-53.22265625,45.8984375,42.48046875,-47.8515625,68.84765625
1508276098491.1226,-33.203125,46.38671875,36.1328125,-15.13671875,47.8515625
1508276098493.3445,-33.203125,44.43359375,33.203125,25.390625,6.8359375
1508276098497.2507,-33.203125,43.9453125,34.1796875,-4.39453125,-23.4375
1508276098501.157,-38.0859375,45.8984375,40.52734375,-51.7578125,7.8125
1508276098505.0632,-59.5703125,43.45703125,41.50390625,-32.2265625,-5.37109375
1508276098508.9695,-34.1796875,43.9453125,41.015625,22.94921875,-18.06640625
1508276098512.8757,-23.92578125,45.41015625,42.48046875,20.99609375,-1.46484375
1508276098516.782,-52.734375,41.9921875,40.52734375,-30.2734375,11.23046875
1508276098520.6882,-52.24609375,38.57421875,36.62109375,-34.1796875,-3.90625
1508276098524.5945,-30.76171875,38.57421875,35.15625,16.11328125,0.0
1508276098528.5007,-33.203125,39.0625,32.71484375,29.296875,-1.953125
1508276098532.407,-29.78515625,39.55078125,29.78515625,-13.18359375,-2.9296875
1508276098536.3132,-41.9921875,40.0390625,35.15625,-24.4140625,-34.1796875
1508276098538.8567,-53.22265625,39.55078125,38.0859375,26.85546875,-41.9921875
1508276098542.763,-36.62109375,36.62109375,40.0390625,42.96875,7.8125
1508276098546.6692,-42.48046875,32.2265625,42.96875,25.87890625,28.80859375
1508276098550.5754,-46.875,34.1796875,42.48046875,-3.90625,11.23046875
1508276098554.4817,-25.87890625,40.52734375,41.015625,22.4609375,16.6015625
1508276098558.388,-4.39453125,40.0390625,43.45703125,52.24609375,37.59765625
1508276098562.2942,-19.53125,38.0859375,44.921875,23.92578125,19.53125
1508276098566.2004,-42.96875,40.52734375,46.38671875,-1.46484375,33.203125
1508276098570.1067,-35.64453125,39.55078125,48.828125,-1.953125,-13.671875
1508276098574.013,-12.6953125,41.9921875,43.9453125,28.80859375,-12.20703125
1508276098577.9192,-15.625,41.50390625,37.109375,51.26953125,22.94921875
1508276098581.8254,-35.64453125,37.59765625,42.48046875,14.16015625,6.34765625
1508276098583.428,-37.109375,38.57421875,42.96875,0.9765625,29.296875
1508276098587.3342,-8.30078125,38.57421875,38.0859375,59.5703125,20.5078125
1508276098591.2405,5.37109375,37.109375,38.0859375,81.0546875,44.43359375
1508276098595.1467,-15.625,37.59765625,34.1796875,17.578125,46.875
1508276098599.053,-26.85546875,41.015625,30.2734375,-13.671875,31.25
1508276098602.9592,-17.578125,41.50390625,34.66796875,40.0390625,74.70703125
1508276098606.8655,-8.7890625,41.015625,32.71484375,55.17578125,33.69140625
1508276098610.7717,-16.11328125,42.48046875,30.2734375,27.83203125,20.01953125
1508276098614.678,-24.90234375,43.45703125,37.109375,-15.13671875,-11.71875
1508276098618.5842,-24.90234375,40.52734375,30.76171875,17.08984375,-14.16015625
1508276098622.4905,-29.78515625,36.62109375,22.94921875,66.89453125,50.78125
1508276098626.3967,-20.01953125,36.62109375,25.390625,47.36328125,14.16015625
1508276098628.4414,-37.109375,36.1328125,29.296875,8.7890625,25.87890625
1508276098632.3477,-45.41015625,29.78515625,30.2734375,20.01953125,67.87109375
1508276098636.254,-4.8828125,24.90234375,30.2734375,62.98828125,25.87890625
1508276098640.1602,-2.44140625,28.3203125,29.78515625,55.6640625,-11.23046875
1508276098644.0664,-31.73828125,30.2734375,28.80859375,13.18359375,10.25390625
1508276098647.9727,-28.3203125,31.73828125,30.76171875,9.27734375,38.0859375
1508276098651.879,-8.7890625,28.80859375,27.34375,60.546875,54.6875
1508276098655.7852,-2.9296875,23.92578125,27.83203125,53.22265625,11.71875
1508276098659.6914,-22.94921875,29.296875,29.78515625,-1.953125,-28.80859375
1508276098663.5977,-39.0625,35.64453125,24.4140625,-10.25390625,-35.15625
1508276098667.504,-38.0859375,31.73828125,23.92578125,41.015625,-38.57421875
1508276098671.4102,-33.69140625,25.87890625,20.99609375,56.640625,-2.44140625
1508276098673.472,-35.15625,28.80859375,23.92578125,27.34375,22.94921875
1508276098677.3782,-59.08203125,34.66796875,28.80859375,-9.27734375,55.17578125
1508276098681.2844,-62.01171875,34.66796875,32.2265625,18.5546875,11.71875
1508276098685.1907,-41.50390625,33.69140625,32.2265625,70.80078125,-5.859375
1508276098689.097,-36.1328125,33.203125,28.80859375,42.48046875,37.109375
1508276098693.0032,-53.22265625,34.66796875,28.80859375,-11.71875,0.48828125
1508276098696.9094,-62.01171875,36.1328125,30.76171875,-12.20703125,-24.4140625
1508276098700.8157,-44.43359375,34.66796875,28.80859375,14.16015625,-35.64453125
1508276098704.722,-39.55078125,33.203125,26.3671875,15.625,19.53125
1508276098708.6282,-65.4296875,39.55078125,31.25,-2.9296875,22.94921875
1508276098712.5344,-77.1484375,43.9453125,32.2265625,-38.0859375,-6.8359375
1508276098716.4407,-52.24609375,43.9453125,26.3671875,19.04296875,35.64453125
1508276098718.5044,-34.66796875,45.41015625,25.87890625,44.43359375,41.015625
1508276098722.4106,-53.7109375,41.50390625,25.87890625,-20.99609375,-4.8828125
1508276098726.317,-89.35546875,40.0390625,31.25,-47.8515625,-2.9296875
1508276098730.2231,-79.58984375,42.96875,36.1328125,-9.27734375,7.32421875
1508276098734.1294,-69.82421875,40.0390625,32.2265625,35.64453125,-1.953125
1508276098738.0356,-61.03515625,38.57421875,35.64453125,7.8125,-13.18359375
1508276098741.942,-71.77734375,44.43359375,40.0390625,-57.6171875,-22.4609375
1508276098745.8481,-92.28515625,45.8984375,36.1328125,-52.24609375,11.23046875
1508276098749.7544,-66.40625,45.8984375,24.4140625,18.06640625,28.80859375
1508276098753.6606,-60.05859375,44.43359375,18.5546875,10.25390625,19.53125
1508276098757.567,-87.40234375,43.9453125,23.4375,-56.15234375,44.43359375
1508276098761.4731,-93.75,43.45703125,25.87890625,-52.24609375,20.99609375
1508276098764.0386,-70.3125,41.50390625,22.4609375,-5.37109375,-3.90625
1508276098767.9448,-66.89453125,42.96875,20.99609375,3.41796875,-4.8828125
1508276098771.851,-80.56640625,46.875,20.5078125,-47.36328125,-34.1796875
1508276098775.7573,-84.47265625,44.921875,25.87890625,-72.75390625,-67.3828125
1508276098779.6636,-64.94140625,42.96875,28.80859375,-6.34765625,-84.9609375
1508276098783.5698,-63.96484375,43.45703125,30.76171875,5.859375,-50.78125
1508276098787.476,-80.56640625,43.9453125,34.66796875,-50.78125,-31.73828125
1508276098791.3823,-84.47265625,43.9453125,31.25,-86.9140625,-45.8984375
1508276098795.2886,-79.58984375,42.48046875,29.78515625,-40.0390625,-20.5078125
1508276098799.1948,-72.265625,43.45703125,36.62109375,-5.37109375,-32.71484375
1508276098803.101,-73.2421875,48.828125,40.52734375,-21.484375,-76.171875
1508276098807.0073,-99.12109375,49.31640625,39.55078125,-57.6171875,-77.1484375
1508276098823.581,-90.33203125,48.33984375,37.59765625,-54.19921875,-89.35546875
1508276098827.4873,-56.640625,46.875,38.0859375,-2.44140625,-96.6796875
1508276098831.3936,-52.734375,46.38671875,39.55078125,8.7890625,-93.26171875
1508276098835.2998,-75.68359375,46.875,36.1328125,-47.8515625,-74.21875
1508276098839.206,-90.8203125,46.38671875,31.73828125,-69.82421875,-65.91796875
1508276098843.1123,-58.59375,48.33984375,37.109375,-16.6015625,-92.28515625
1508276098847.0186,-50.78125,47.8515625,37.59765625,-14.16015625,-123.53515625
1508276098850.9248,-62.5,44.921875,28.80859375,-43.9453125,-74.70703125
1508276098854.831,-52.734375,46.38671875,33.203125,-59.08203125,-84.47265625
1508276098858.7373,-45.8984375,45.8984375,34.1796875,-20.99609375,-129.39453125
1508276098862.6436,-38.0859375,43.9453125,28.3203125,5.859375,-111.328125
1508276098866.5498,-44.921875,44.921875,36.62109375,-2.9296875,-83.0078125
1508276098868.1318,-57.12890625,42.48046875,45.41015625,-43.9453125,-70.80078125
1508276098872.038,-44.43359375,40.0390625,44.921875,-28.80859375,-63.96484375
1508276098875.9443,-31.73828125,41.9921875,40.0390625,19.04296875,-42.96875
1508276098879.8506,-33.69140625,42.96875,38.0859375,14.16015625,-43.45703125
1508276098883.7568,-40.52734375,47.36328125,40.0390625,-28.80859375,-37.109375
1508276098887.663,-35.64453125,50.78125,41.9921875,-20.5078125,-29.78515625
1508276098891.5693,-17.578125,52.24609375,43.45703125,22.94921875,-43.45703125
1508276098895.4756,-20.01953125,49.31640625,39.55078125,29.78515625,-41.50390625
1508276098899.3818,-49.8046875,51.7578125,34.66796875,-16.6015625,-94.7265625
1508276098903.288,-36.1328125,60.546875,37.59765625,-61.03515625,-125.0
1508276098907.1943,-18.06640625,57.6171875,34.1796875,-19.04296875,-53.7109375
1508276098911.1006,-20.99609375,52.24609375,31.25,18.5546875,-46.875
1508276098913.687,-27.83203125,53.22265625,37.109375,-14.6484375,-84.9609375
1508276098917.5933,-43.45703125,52.734375,40.52734375,-51.26953125,-111.81640625
1508276098921.4995,-34.1796875,49.31640625,32.71484375,-12.20703125,-104.4921875
1508276098925.4058,-17.08984375,50.29296875,30.2734375,32.2265625,-88.37890625
1508276098929.312,-9.27734375,50.78125,38.0859375,10.7421875,-115.234375
1508276098933.2183,-23.92578125,50.29296875,41.50390625,-22.4609375,-136.71875
1508276098937.1245,-24.90234375,52.24609375,35.64453125,2.9296875,-148.4375
1508276098941.0308,-2.44140625,50.78125,31.73828125,36.62109375,-139.16015625
1508276098944.937,5.859375,51.7578125,32.2265625,25.390625,-119.140625
1508276098948.8433,-4.39453125,55.17578125,31.73828125,-21.97265625,-102.05078125
1508276098952.7495,-27.83203125,51.7578125,23.4375,-12.6953125,-84.47265625
1508276098956.6558,-9.27734375,47.36328125,24.4140625,45.41015625,-108.3984375
1508276098958.1968,19.53125,43.9453125,29.296875,52.24609375,-78.61328125
1508276098962.103,-4.8828125,41.9921875,30.76171875,-10.25390625,-55.17578125
1508276098966.0093,-39.0625,43.9453125,32.2265625,-28.80859375,-80.078125
1508276098969.9155,-26.3671875,44.43359375,30.2734375,29.296875,-76.66015625
1508276098973.8218,-9.765625,43.45703125,26.3671875,57.6171875,-102.05078125
1508276098977.728,-19.04296875,41.9921875,26.85546875,20.5078125,-100.5859375
1508276098981.6343,-10.7421875,44.43359375,35.64453125,-30.76171875,-108.3984375
1508276098985.5405,-3.90625,43.9453125,40.0390625,11.23046875,-118.65234375
1508276098989.4468,-4.8828125,38.0859375,41.9921875,47.8515625,-83.984375
1508276098993.353,7.8125,39.0625,40.52734375,32.71484375,-64.94140625
1508276098997.2593,-12.6953125,40.0390625,39.0625,5.859375,-88.37890625
1508276099001.1655,-9.765625,41.50390625,37.59765625,14.16015625,-86.9140625
1508276099003.2266,27.83203125,46.38671875,33.69140625,57.12890625,-63.96484375
1508276099007.1328,38.0859375,49.8046875,31.25,45.41015625,-77.1484375
1508276099011.039,-5.37109375,49.8046875,34.1796875,-3.41796875,-94.23828125
1508276099014.9453,-26.3671875,50.78125,38.0859375,-9.27734375,-63.96484375
1508276099018.8516,-0.9765625,52.734375,35.64453125,33.203125,-65.4296875
1508276099022.7578,-5.859375,52.24609375,37.109375,46.38671875,-91.796875
1508276099026.664,-31.25,49.8046875,38.0859375,-2.44140625,-75.1953125
1508276099030.5703,-38.57421875,51.26953125,38.57421875,-41.015625,-117.1875
1508276099034.4766,-22.4609375,54.19921875,36.1328125,2.9296875,-121.58203125
1508276099038.3828,-20.01953125,50.78125,30.76171875,28.80859375,-62.98828125
1508276099042.289,-32.71484375,51.7578125,33.69140625,2.9296875,-73.73046875
1508276099046.1953,-33.203125,53.7109375,38.57421875,-40.0390625,-117.67578125
1508276099048.2607,-12.20703125,51.7578125,40.0390625,-12.6953125,-105.46875
1508276099052.167,-5.37109375,51.26953125,34.66796875,37.109375,-49.31640625
1508276099056.0732,-13.18359375,49.8046875,34.1796875,16.6015625,-90.8203125
1508276099059.9795,-22.94921875,49.8046875,38.57421875,-35.64453125,-106.93359375
1508276099063.8857,-39.0625,51.7578125,42.96875,-23.4375,-78.125
1508276099067.792,-31.73828125,50.78125,47.36328125,9.765625,-94.23828125
1508276099071.6982,-32.71484375,52.24609375,47.36328125,7.8125,-97.16796875
1508276099075.6045,-49.8046875,50.78125,48.828125,-53.7109375,-105.95703125
1508276099079.5107,-51.26953125,50.78125,50.29296875,-66.40625,-93.26171875
1508276099083.417,-30.76171875,52.734375,44.921875,10.7421875,-84.9609375
1508276099087.3232,-27.34375,53.22265625,42.48046875,17.578125,-118.65234375
1508276099091.2295,-75.68359375,59.5703125,48.828125,-59.5703125,-122.0703125
1508276099093.292,-110.3515625,59.5703125,55.17578125,-107.91015625,-109.375
1508276099097.1982,-110.3515625,55.6640625,51.7578125,-77.63671875,-101.5625
1508276099101.1045,-109.86328125,57.12890625,52.24609375,-76.66015625,-92.7734375
1508276099105.0107,-119.140625,66.89453125,54.19921875,-107.91015625,-86.9140625
1508276099108.917,-154.78515625,71.77734375,49.8046875,-151.3671875,-44.43359375
1508276099112.8232,-170.41015625,69.82421875,50.29296875,-147.4609375,-58.10546875
1508276099116.7295,-144.04296875,66.89453125,50.29296875,-124.51171875,-84.9609375
1508276099120.6357,-150.87890625,65.91796875,47.36328125,-145.01953125,-63.96484375
1508276099124.542,-191.89453125,68.359375,50.29296875,-189.94140625,-47.8515625
1508276099128.4482,-191.40625,66.89453125,53.22265625,-154.78515625,-64.94140625
1508276099132.3545,-175.78125,65.91796875,48.33984375,-109.86328125,-67.87109375
1508276099136.2607,-184.08203125,65.4296875,48.33984375,-133.7890625,-69.82421875
1508276099138.3245,-189.453125,67.3828125,48.828125,-154.296875,-76.171875
1508276099142.2307,-178.22265625,66.89453125,51.7578125,-159.1796875,-72.75390625
1508276099146.137,-151.3671875,63.4765625,47.36328125,-86.42578125,-78.125
1508276099150.0432,-126.953125,65.4296875,44.43359375,-53.7109375,-54.19921875
1508276099153.9495,-135.7421875,64.94140625,50.29296875,-107.91015625,-58.10546875
1508276099157.8557,-117.1875,62.5,45.41015625,-115.72265625,-123.046875
1508276099161.762,-77.63671875,62.01171875,44.43359375,-59.08203125,-169.921875
1508276099165.6682,-76.171875,57.12890625,42.96875,-30.76171875,-125.0
1508276099169.5745,-75.68359375,57.12890625,37.59765625,-10.7421875,-96.19140625
1508276099173.4807,-67.3828125,56.15234375,41.9921875,-38.0859375,-106.93359375
1508276099177.387,-46.38671875,49.8046875,44.43359375,-25.390625,-130.37109375
1508276099181.2932,-18.5546875,51.26953125,41.015625,49.8046875,-107.421875
1508276099213.3816,-15.13671875,50.78125,36.1328125,50.29296875,-46.38671875
1508276099217.2878,-16.11328125,51.26953125,35.64453125,-3.41796875,-55.6640625
1508276099221.194,-0.9765625,50.29296875,36.62109375,10.25390625,-54.6875
1508276099225.1003,31.25,47.8515625,36.62109375,77.63671875,-80.56640625
1508276099229.0066,20.5078125,48.828125,37.109375,93.75,-43.9453125
1508276099232.9128,-4.39453125,50.78125,43.9453125,43.9453125,-44.43359375
1508276099236.819,12.6953125,51.7578125,45.8984375,26.3671875,-88.37890625
1508276099240.7253,41.9921875,50.29296875,39.0625,86.42578125,-39.0625
1508276099244.6316,42.96875,47.8515625,38.0859375,125.0,-59.5703125
1508276099248.5378,26.85546875,49.31640625,42.96875,81.0546875,-75.1953125
1508276099252.444,20.5078125,52.734375,41.015625,27.34375,-86.9140625
1508276099256.3503,26.3671875,54.19921875,35.64453125,82.03125,-66.89453125
1508276099243.3962,46.38671875,53.7109375,35.15625,118.1640625,-49.8046875
1508276099247.3025,52.734375,52.734375,40.0390625,94.23828125,-75.68359375
1508276099251.2087,23.92578125,53.7109375,41.015625,54.19921875,-82.51953125
1508276099255.115,22.94921875,51.7578125,37.109375,83.984375,-68.359375
1508276099259.0212,52.24609375,48.33984375,38.57421875,145.5078125,-65.4296875
1508276099262.9275,41.50390625,48.828125,41.015625,126.46484375,-51.7578125
1508276099266.8337,22.94921875,50.78125,40.0390625,58.10546875,-38.0859375
1508276099270.74,23.92578125,52.24609375,37.109375,61.03515625,-71.77734375
1508276099274.6462,48.828125,55.17578125,38.57421875,131.8359375,-84.47265625
1508276099278.5525,67.87109375,54.19921875,40.52734375,135.7421875,-43.9453125
1508276099282.4587,49.31640625,53.7109375,42.48046875,89.35546875,-23.4375
1508276099286.365,38.0859375,57.12890625,46.875,75.1953125,-15.13671875
1508276099288.4292,59.5703125,56.15234375,48.33984375,125.0,-4.8828125
1508276099292.3354,71.2890625,55.17578125,45.41015625,132.8125,0.0
1508276099296.2417,50.78125,58.59375,39.55078125,95.703125,-11.71875
1508276099300.148,27.83203125,61.03515625,36.1328125,76.171875,-29.78515625
1508276099304.0542,44.43359375,62.5,39.55078125,100.09765625,-8.30078125
1508276099307.9604,59.08203125,61.5234375,42.96875,125.48828125,22.4609375
1508276099311.8667,57.6171875,62.01171875,39.0625,99.609375,22.94921875
1508276099315.773,35.15625,64.453125,40.52734375,54.6875,-36.1328125
1508276099319.6792,19.04296875,64.453125,45.8984375,60.546875,-58.10546875
1508276099323.5854,50.29296875,64.453125,42.48046875,103.02734375,-17.08984375
1508276099327.4917,45.41015625,61.03515625,34.66796875,104.98046875,7.8125
1508276099331.398,18.5546875,57.12890625,41.50390625,72.265625,-1.953125
1508276099333.481,12.20703125,59.08203125,45.41015625,58.59375,-20.5078125
1508276099337.3872,22.94921875,60.546875,37.59765625,90.8203125,6.8359375
1508276099341.2935,36.1328125,59.5703125,32.71484375,100.09765625,20.99609375
1508276099345.1997,27.83203125,58.59375,34.66796875,54.6875,-32.71484375
1508276099349.106,17.08984375,58.10546875,36.1328125,32.2265625,-52.24609375
1508276099353.0122,29.78515625,59.08203125,39.55078125,99.609375,-34.66796875
1508276099356.9185,35.64453125,56.640625,38.57421875,116.2109375,11.71875
1508276099360.8247,23.4375,56.640625,36.1328125,75.1953125,10.25390625
1508276099364.731,7.8125,58.59375,39.55078125,32.2265625,-14.16015625
1508276099368.6372,17.578125,55.17578125,37.59765625,59.08203125,7.8125
1508276099372.5435,42.96875,53.22265625,41.015625,105.95703125,5.37109375
1508276099376.4497,36.1328125,52.24609375,47.8515625,79.58984375,-28.3203125
1508276099378.4922,15.625,56.15234375,49.31640625,19.53125,-55.17578125
1508276099382.3984,7.8125,56.15234375,45.8984375,35.64453125,-26.85546875
1508276099386.3047,25.87890625,55.6640625,41.50390625,105.95703125,4.8828125
1508276099390.211,26.3671875,58.59375,41.9921875,96.6796875,-2.44140625
1508276099394.1172,16.11328125,57.12890625,43.9453125,31.25,-2.44140625
1508276099398.0234,23.92578125,57.12890625,42.48046875,22.94921875,-20.01953125
1508276099401.9297,13.671875,59.08203125,39.55078125,77.63671875,-30.2734375
1508276099405.836,13.18359375,56.15234375,39.0625,84.9609375,-62.01171875
1508276099409.7422,11.23046875,52.24609375,39.55078125,26.85546875,-48.828125
1508276099413.6484,-0.9765625,53.22265625,40.0390625,13.18359375,-11.23046875
1508276099417.5547,19.04296875,53.7109375,38.0859375,71.77734375,-23.4375
1508276099421.461,28.3203125,52.734375,34.66796875,91.796875,-10.7421875
1508276099423.5244,7.32421875,53.7109375,37.109375,71.77734375,-26.85546875
1508276099427.4307,0.9765625,53.7109375,35.64453125,35.64453125,8.7890625
1508276099431.337,12.6953125,52.734375,30.2734375,43.45703125,18.5546875
1508276099435.2432,18.5546875,51.7578125,33.69140625,65.4296875,-5.859375
1508276099439.1494,10.7421875,49.8046875,35.15625,70.3125,5.859375
1508276099443.0557,0.48828125,50.78125,36.62109375,23.4375,-41.015625
1508276099446.962,1.953125,51.26953125,39.0625,35.15625,-43.9453125
1508276099450.8682,21.484375,51.26953125,40.0390625,68.359375,-52.734375
1508276099454.7744,26.85546875,51.7578125,36.62109375,55.17578125,-23.4375
1508276099458.6807,-9.27734375,52.734375,32.71484375,32.2265625,-17.578125
1508276099462.587,-22.94921875,52.734375,34.66796875,12.20703125,-64.94140625
1508276099466.4932,0.48828125,49.8046875,32.71484375,66.40625,-38.0859375
1508276099468.559,19.53125,50.29296875,32.2265625,88.37890625,-27.34375
1508276099472.4653,4.39453125,49.31640625,33.69140625,44.921875,-21.97265625
1508276099476.3716,-22.94921875,49.31640625,31.73828125,2.44140625,4.8828125
1508276099480.2778,0.9765625,49.31640625,34.1796875,52.24609375,-5.859375
1508276099484.184,28.80859375,47.36328125,37.109375,89.35546875,-18.06640625
1508276099488.0903,11.23046875,49.31640625,38.57421875,54.6875,-29.296875
1508276099491.9966,-8.7890625,49.8046875,42.96875,16.6015625,-41.50390625
1508276099495.9028,12.20703125,48.828125,45.41015625,32.2265625,-15.13671875
1508276099499.809,19.53125,45.8984375,36.1328125,66.89453125,8.7890625
1508276099503.7153,6.34765625,48.828125,30.2734375,81.0546875,-12.6953125
1508276099507.6216,-7.8125,54.6875,37.59765625,25.390625,-27.34375
1508276099511.5278,-12.20703125,49.8046875,44.921875,-6.34765625,2.44140625
1508276099528.5999,4.39453125,46.875,41.9921875,64.453125,37.59765625
1508276099532.506,17.08984375,49.8046875,40.52734375,64.453125,41.015625
1508276099536.4124,-7.8125,50.78125,40.52734375,18.5546875,56.15234375
1508276099540.3186,-23.92578125,50.78125,42.96875,10.25390625,20.01953125
1508276099544.2249,-6.34765625,48.33984375,41.50390625,43.9453125,-6.34765625
1508276099548.131,-5.859375,43.45703125,40.0390625,74.21875,13.18359375
1508276099552.0374,0.9765625,45.8984375,45.41015625,28.3203125,-40.52734375
1508276099555.9436,-19.04296875,51.7578125,34.1796875,-33.69140625,-48.828125
1508276099559.8499,-20.5078125,50.78125,24.90234375,17.578125,-33.203125
1508276099563.756,1.46484375,46.38671875,34.1796875,62.98828125,-63.96484375
1508276099567.6624,0.48828125,43.9453125,39.0625,44.43359375,-62.01171875
1508276099571.5686,-11.23046875,43.45703125,37.109375,-0.9765625,-48.828125
1508276099573.6328,-11.71875,43.9453125,34.66796875,13.18359375,-25.390625
1508276099577.539,4.8828125,42.96875,30.76171875,50.78125,0.9765625
1508276099581.4453,10.25390625,43.9453125,28.3203125,42.48046875,15.13671875
1508276099585.3516,-18.5546875,45.8984375,29.78515625,16.11328125,20.5078125
1508276099589.2578,-27.83203125,42.96875,31.25,12.20703125,24.90234375
1508276099593.164,3.41796875,41.015625,30.76171875,33.69140625,-2.44140625
1508276099597.0703,9.27734375,44.43359375,27.34375,42.96875,1.46484375
1508276099600.9766,-25.87890625,46.875,22.4609375,24.90234375,4.39453125
1508276099604.8828,-36.62109375,43.9453125,19.04296875,-3.41796875,-8.7890625
1508276099608.789,-0.9765625,44.921875,26.85546875,19.53125,-44.43359375
1508276099612.6953,8.30078125,48.33984375,26.3671875,47.36328125,-47.36328125
1508276099616.6016,-17.578125,46.875,22.94921875,42.48046875,-12.20703125
1508276099633.1763,-14.6484375,46.875,26.85546875,-0.9765625,-4.8828125
1508276099637.0825,5.37109375,45.8984375,20.01953125,12.20703125,-0.48828125
1508276099640.9888,2.44140625,44.43359375,20.01953125,55.6640625,-37.59765625
1508276099644.895,-7.8125,44.921875,22.94921875,41.50390625,-16.11328125
1508276099648.8013,-18.5546875,45.41015625,24.90234375,-4.39453125,-21.97265625
1508276099652.7075,-15.625,46.38671875,26.85546875,10.7421875,-36.62109375
1508276099656.6138,0.9765625,44.43359375,27.34375,60.546875,21.484375
1508276099660.52,-3.41796875,41.015625,29.78515625,60.05859375,5.37109375
1508276099664.4263,-27.34375,37.59765625,34.1796875,12.6953125,-57.12890625
1508276099668.3325,-27.34375,38.0859375,38.57421875,-11.71875,-66.89453125
1508276099672.2388,-8.30078125,39.0625,35.64453125,32.71484375,-37.59765625
1508276099676.145,-2.44140625,38.0859375,33.203125,70.80078125,12.6953125
1508276099663.7002,-17.578125,41.015625,38.57421875,24.4140625,-32.2265625
1508276099667.6064,-30.2734375,45.8984375,38.57421875,-29.78515625,-60.546875
1508276099671.5127,-15.625,44.43359375,32.71484375,25.390625,-0.9765625
1508276099675.419,3.41796875,40.52734375,28.3203125,63.96484375,0.0
1508276099679.3252,-3.90625,43.45703125,28.80859375,39.55078125,-15.13671875
1508276099683.2314,-29.296875,44.43359375,35.15625,6.34765625,-33.69140625
1508276099687.1377,-27.83203125,43.45703125,33.69140625,23.4375,-31.73828125
1508276099691.044,2.9296875,43.45703125,32.2265625,67.3828125,0.0
1508276099694.9502,0.48828125,42.96875,32.71484375,54.19921875,-11.23046875
1508276099698.8564,-25.87890625,42.96875,30.76171875,-3.90625,-11.23046875
1508276099702.7627,-25.87890625,42.48046875,29.78515625,12.6953125,28.3203125
1508276099706.669,-3.41796875,38.57421875,30.2734375,63.96484375,35.15625
1508276099708.2266,12.6953125,35.64453125,31.73828125,54.6875,21.484375
1508276099712.1328,-7.32421875,40.0390625,26.85546875,4.8828125,32.2265625
1508276099716.039,-19.53125,42.48046875,22.94921875,3.41796875,17.08984375
1508276099719.9453,-5.37109375,37.59765625,28.3203125,64.94140625,-19.53125
1508276099723.8516,4.39453125,36.62109375,30.76171875,84.9609375,-8.7890625
1508276099727.7578,-6.8359375,41.9921875,29.78515625,30.76171875,-15.625
1508276099731.664,-28.80859375,42.48046875,26.85546875,-6.8359375,-22.4609375
1508276099735.5703,-12.20703125,41.015625,23.4375,54.6875,10.7421875
1508276099739.4766,8.30078125,41.50390625,24.90234375,69.82421875,22.94921875
1508276099743.3828,-1.46484375,41.9921875,20.5078125,24.4140625,10.25390625
1508276099747.289,-26.3671875,44.921875,17.578125,6.34765625,29.296875
1508276099751.1953,-7.8125,45.41015625,24.90234375,23.4375,56.640625
1508276099768.326,19.53125,41.9921875,27.83203125,66.89453125,62.5
1508276099772.2322,12.6953125,40.0390625,26.85546875,57.6171875,43.45703125
1508276099776.1384,-13.18359375,40.0390625,32.2265625,0.48828125,7.8125
1508276099780.0447,-20.99609375,40.52734375,34.1796875,3.41796875,0.0
1508276099783.951,0.48828125,38.57421875,31.25,62.5,60.546875
1508276099787.8572,21.484375,39.55078125,32.71484375,82.51953125,62.98828125
1508276099791.7634,-8.30078125,43.45703125,30.2734375,33.69140625,11.71875
1508276099795.6697,-26.85546875,40.52734375,32.2265625,-8.7890625,-41.9921875
1508276099799.576,0.48828125,40.0390625,31.25,32.2265625,-65.91796875
1508276099803.4822,-3.41796875,40.52734375,24.4140625,64.453125,-37.59765625
1508276099807.3884,-13.18359375,38.0859375,28.3203125,29.78515625,-23.4375
1508276099811.2947,-19.04296875,41.50390625,33.69140625,-11.71875,-4.39453125
1508276099798.3481,-22.4609375,41.9921875,38.0859375,30.76171875,18.5546875
1508276099802.2544,-8.7890625,37.109375,35.15625,73.73046875,29.78515625
1508276099806.1606,-6.34765625,36.1328125,30.2734375,68.84765625,59.5703125
1508276099810.067,-4.8828125,39.55078125,37.59765625,7.8125,54.6875
1508276099813.9731,12.20703125,42.96875,40.0390625,10.25390625,20.5078125
1508276099817.8794,8.7890625,40.52734375,38.57421875,74.70703125,11.23046875
1508276099821.7856,-4.39453125,38.0859375,43.45703125,65.91796875,19.04296875
