timestamp,TP9,AF7,AF8,TP10,Right AUX

1530859465.800125,4.39453125,23.92578125,19.04296875,0.0,-23.92578125
1530859465.8040311,10.7421875,25.87890625,78.61328125,49.31640625,14.16015625
1530859465.8079374,7.32421875,27.34375,67.3828125,50.78125,55.17578125
1530859465.8118436,-6.34765625,27.34375,20.99609375,4.39453125,34.66796875
1530859465.81575,-1.953125,29.296875,12.6953125,-5.37109375,6.34765625
1530859465.8196561,16.11328125,29.78515625,26.3671875,40.0390625,2.9296875
1530859465.8235624,13.18359375,24.90234375,70.80078125,58.10546875,18.5546875
1530859465.8274686,-3.41796875,26.3671875,23.4375,25.390625,28.80859375
1530859465.831375,-9.27734375,29.296875,-4.8828125,-11.71875,21.97265625
1530859465.8352811,10.7421875,29.78515625,93.75,25.390625,43.9453125
1530859465.8391874,22.94921875,32.2265625,78.61328125,64.94140625,48.828125
1530859465.8430936,17.08984375,32.71484375,31.25,38.57421875,37.59765625
1530859465.845125,16.6015625,32.2265625,13.671875,11.23046875,-15.13671875
1530859465.8490312,19.04296875,31.73828125,33.203125,35.64453125,-38.0859375
1530859465.8529375,25.87890625,30.2734375,63.4765625,71.77734375,-3.41796875
1530859465.8568437,23.4375,26.3671875,38.57421875,55.6640625,2.9296875
1530859465.86075,9.27734375,22.4609375,0.48828125,20.99609375,12.20703125
1530859465.8646562,5.859375,22.4609375,-6.8359375,24.4140625,-20.99609375
1530859465.8685625,17.08984375,24.90234375,43.9453125,70.3125,-24.90234375
1530859465.8724687,23.92578125,26.85546875,0.48828125,68.359375,-10.7421875
1530859465.876375,16.6015625,31.25,4.8828125,31.25,-20.5078125
1530859465.8802812,8.7890625,28.80859375,49.31640625,15.625,-2.44140625
1530859465.8841875,26.3671875,31.25,21.484375,46.875,13.671875
1530859465.8880937,37.59765625,33.69140625,23.92578125,69.82421875,1.46484375
1530859465.889125,26.3671875,33.203125,25.390625,40.52734375,12.20703125
1530859465.8930314,12.20703125,31.73828125,-1.953125,0.48828125,-22.94921875
1530859465.8969376,6.8359375,28.80859375,5.859375,19.04296875,-31.73828125
1530859465.9008439,14.16015625,32.2265625,18.06640625,61.5234375,-6.8359375
1530859465.90475,6.34765625,30.76171875,10.7421875,49.8046875,-59.5703125
1530859465.9086564,-9.765625,27.83203125,19.04296875,10.25390625,-72.265625
1530859465.9125626,-3.41796875,29.78515625,5.37109375,23.92578125,-46.38671875
1530859465.9164689,14.16015625,27.83203125,36.62109375,63.96484375,5.37109375
1530859465.920375,21.484375,30.76171875,85.44921875,59.5703125,19.53125
1530859465.9242814,15.13671875,31.73828125,31.25,31.25,8.30078125
1530859465.9281876,8.7890625,29.296875,-4.39453125,21.484375,7.32421875
1530859465.9320939,17.08984375,32.2265625,35.64453125,60.546875,-20.01953125
1530859465.934125,23.4375,32.71484375,55.6640625,72.75390625,11.71875
1530859465.9380312,0.48828125,26.85546875,7.8125,31.25,-30.2734375
1530859465.9419374,-14.16015625,27.34375,-5.859375,-5.37109375,-83.0078125
1530859465.9458437,-5.37109375,32.71484375,47.36328125,30.76171875,6.34765625
1530859465.94975,-0.9765625,34.66796875,50.29296875,57.12890625,36.62109375
1530859465.9536562,-15.13671875,33.69140625,5.37109375,23.92578125,16.6015625
1530859465.9575624,-26.3671875,33.203125,-53.22265625,-23.4375,-16.11328125
1530859465.9614687,-9.765625,36.1328125,6.8359375,-4.8828125,-57.6171875
1530859465.965375,7.8125,37.59765625,90.8203125,50.78125,-37.59765625
1530859465.9692812,2.9296875,35.15625,24.90234375,33.69140625,-29.296875
1530859465.9731874,-7.32421875,32.2265625,0.9765625,-7.32421875,-19.53125
1530859465.9770937,-3.90625,31.73828125,31.73828125,-3.41796875,20.01953125
1530859465.994125,3.90625,30.76171875,36.1328125,32.71484375,25.87890625
1530859465.9980311,5.37109375,32.71484375,21.97265625,32.2265625,37.109375
1530859466.0019374,-0.48828125,34.66796875,5.37109375,-7.8125,22.4609375
1530859466.0058436,-1.953125,32.2265625,19.04296875,-24.4140625,-31.25
1530859466.00975,5.37109375,31.25,40.0390625,26.3671875,0.9765625
1530859466.0136561,20.99609375,36.62109375,-9.765625,55.6640625,29.78515625
1530859466.0175624,10.7421875,33.69140625,-1.46484375,20.99609375,13.671875
1530859466.0214686,-17.578125,23.92578125,75.1953125,-10.25390625,-5.859375
1530859466.025375,-16.11328125,20.01953125,66.40625,28.3203125,-4.8828125
1530859466.0292811,-0.48828125,18.06640625,66.89453125,63.4765625,42.48046875
1530859466.0331874,2.9296875,18.5546875,62.98828125,47.8515625,17.578125
1530859466.0370936,-11.23046875,15.13671875,47.36328125,13.18359375,-13.18359375
1530859466.039125,-9.27734375,13.18359375,43.9453125,23.92578125,7.8125
1530859466.0430312,6.8359375,18.06640625,64.94140625,61.5234375,7.8125
1530859466.0469375,10.25390625,18.06640625,76.66015625,54.6875,16.6015625
1530859466.0508437,-4.8828125,17.578125,53.22265625,23.92578125,11.71875
1530859466.05475,-10.25390625,18.06640625,38.0859375,20.5078125,-23.4375
1530859466.0586562,8.7890625,14.16015625,30.2734375,62.5,-19.04296875
1530859466.0625625,12.20703125,16.6015625,64.94140625,69.3359375,30.76171875
1530859466.0664687,2.44140625,22.4609375,60.05859375,32.2265625,24.90234375
1530859466.070375,-2.9296875,23.92578125,23.92578125,13.18359375,-27.83203125
1530859466.0742812,-6.8359375,23.4375,11.71875,44.43359375,-52.24609375
1530859466.0781875,8.30078125,28.3203125,84.47265625,75.1953125,-7.8125
1530859466.0820937,3.41796875,26.3671875,89.35546875,53.7109375,26.85546875
1530859466.084125,-12.20703125,22.94921875,-1.46484375,9.765625,-9.27734375
1530859466.0880313,0.9765625,22.94921875,41.015625,38.0859375,-18.06640625
1530859466.0919375,15.13671875,24.4140625,84.47265625,70.3125,-13.671875
1530859466.0958438,2.9296875,24.4140625,55.6640625,48.828125,13.18359375
1530859466.09975,-10.25390625,23.4375,-9.765625,10.7421875,8.30078125
1530859466.1036563,-0.9765625,26.85546875,-7.32421875,21.484375,-14.6484375
1530859466.1075625,11.71875,26.3671875,55.6640625,65.4296875,28.3203125
1530859466.1114688,12.6953125,27.34375,73.2421875,69.3359375,21.484375
1530859466.115375,5.37109375,26.85546875,-9.765625,27.34375,-35.64453125
1530859466.1192813,4.39453125,26.85546875,-32.2265625,8.30078125,-60.05859375
1530859466.1231875,19.04296875,26.85546875,84.9609375,61.03515625,-20.5078125
1530859466.1270938,31.25,26.3671875,79.58984375,71.77734375,17.08984375
1530859466.129125,22.4609375,28.80859375,15.13671875,27.34375,5.37109375
1530859466.1330314,13.18359375,27.34375,18.5546875,5.859375,18.06640625
1530859466.1369376,8.7890625,26.3671875,35.64453125,38.0859375,-2.44140625
1530859466.1408439,27.83203125,30.2734375,37.59765625,65.4296875,-2.9296875
1530859466.14475,41.015625,33.203125,23.92578125,46.875,18.06640625
1530859466.1486564,16.6015625,26.85546875,-3.90625,1.953125,22.4609375
1530859466.1525626,-6.8359375,18.06640625,41.50390625,15.625,55.6640625
1530859466.1564689,1.46484375,13.18359375,73.73046875,61.5234375,62.98828125
1530859466.160375,8.7890625,11.71875,-1.953125,41.9921875,-2.9296875
1530859466.1642814,-2.9296875,13.18359375,23.4375,4.8828125,0.0
1530859466.1681876,-17.578125,10.7421875,79.1015625,22.94921875,49.31640625
1530859466.1720939,-17.08984375,7.32421875,43.9453125,58.59375,36.1328125
1530859466.174125,-8.30078125,11.71875,31.73828125,51.26953125,24.90234375
1530859466.1780312,-14.16015625,13.671875,29.296875,9.27734375,5.37109375
1530859466.1819375,-15.625,8.7890625,40.52734375,-2.9296875,17.578125
1530859466.1858437,-5.859375,9.27734375,44.43359375,41.015625,20.99609375
1530859466.18975,-4.8828125,11.71875,29.78515625,55.17578125,13.671875
1530859466.1936562,-12.20703125,14.6484375,29.78515625,21.97265625,31.25
1530859466.1975625,-17.08984375,15.13671875,25.390625,3.41796875,12.20703125
1530859466.2014687,-5.859375,12.20703125,-0.48828125,43.9453125,18.5546875
1530859466.205375,13.671875,16.11328125,37.109375,66.40625,47.36328125
1530859466.2092812,8.30078125,21.484375,86.9140625,45.8984375,45.8984375
1530859466.2131875,-0.48828125,18.06640625,28.3203125,17.08984375,8.30078125
1530859466.2170937,5.859375,14.16015625,34.66796875,40.0390625,-19.53125
1530859466.219125,20.5078125,15.625,62.98828125,76.171875,-14.16015625
1530859466.2230313,20.5078125,21.484375,54.19921875,58.10546875,15.13671875
1530859466.2269375,10.7421875,23.92578125,22.4609375,20.5078125,0.48828125
1530859466.2308438,11.23046875,22.94921875,22.4609375,25.390625,-19.04296875
1530859466.23475,17.578125,22.94921875,56.640625,65.91796875,5.859375
1530859466.2386563,12.20703125,22.4609375,38.0859375,58.59375,8.30078125
1530859466.2425625,3.41796875,23.4375,31.73828125,23.92578125,18.5546875
1530859466.2464688,3.90625,22.4609375,-6.8359375,3.90625,-18.06640625
1530859466.250375,12.6953125,17.578125,40.0390625,46.38671875,-29.296875
1530859466.2542813,28.80859375,20.5078125,113.76953125,77.1484375,41.9921875
1530859466.2581875,19.04296875,24.4140625,49.8046875,42.96875,16.11328125
1530859466.2620938,9.27734375,24.90234375,11.23046875,10.7421875,-47.8515625
1530859466.264125,12.6953125,30.2734375,71.77734375,42.48046875,-18.5546875
1530859466.2680314,12.20703125,28.80859375,79.58984375,75.1953125,34.1796875
1530859466.2719376,11.23046875,22.4609375,7.8125,45.8984375,7.32421875
1530859466.2758439,2.44140625,20.01953125,-1.46484375,8.30078125,-15.625
1530859466.27975,2.9296875,21.484375,33.69140625,32.2265625,15.625
1530859466.2836564,21.484375,22.94921875,34.1796875,72.265625,17.08984375
1530859466.2875626,20.99609375,20.5078125,13.18359375,54.6875,-5.37109375
1530859466.2914689,10.7421875,24.4140625,4.8828125,18.5546875,-3.41796875
1530859466.295375,7.32421875,29.78515625,32.71484375,25.87890625,-5.37109375
1530859466.2992814,10.7421875,30.76171875,54.6875,69.3359375,13.671875
1530859466.3031876,28.3203125,34.1796875,-5.37109375,64.453125,11.23046875
1530859466.3070939,17.578125,32.2265625,-23.92578125,20.5078125,-11.71875
1530859466.309125,-12.20703125,23.4375,55.6640625,6.8359375,8.30078125
1530859466.3130312,-14.16015625,18.06640625,58.10546875,46.875,23.92578125
1530859466.3169374,-5.859375,19.53125,52.24609375,70.80078125,14.16015625
1530859466.3208437,-10.25390625,19.04296875,41.9921875,48.828125,33.203125
1530859466.32475,-14.6484375,16.11328125,6.34765625,16.6015625,19.53125
1530859466.3286562,1.46484375,16.6015625,1.953125,46.38671875,-18.06640625
1530859466.3325624,13.671875,19.04296875,4.8828125,71.2890625,25.87890625
1530859466.3364687,3.41796875,19.04296875,32.2265625,44.43359375,37.109375
1530859466.340375,-4.39453125,19.53125,44.921875,13.18359375,13.18359375
1530859466.3442812,0.48828125,23.4375,10.25390625,15.625,-7.32421875
1530859466.3481874,4.39453125,27.83203125,32.2265625,62.01171875,27.34375
1530859466.3520937,-5.37109375,23.92578125,47.36328125,54.19921875,61.5234375
1530859466.369125,-20.5078125,20.5078125,21.484375,11.71875,34.1796875
1530859466.3730311,-18.06640625,21.484375,-8.30078125,7.8125,6.34765625
1530859466.3769374,3.90625,22.94921875,24.4140625,54.19921875,23.4375
1530859466.3808436,11.23046875,25.87890625,68.84765625,66.89453125,39.55078125
1530859466.38475,4.39453125,27.83203125,12.20703125,31.25,28.3203125
1530859466.3886561,3.90625,28.3203125,-57.12890625,7.32421875,1.46484375
1530859466.3925624,14.16015625,25.87890625,3.90625,39.0625,4.39453125
1530859466.3964686,30.2734375,26.3671875,106.93359375,71.2890625,38.0859375
1530859466.400375,14.16015625,25.87890625,55.17578125,50.78125,44.921875
1530859466.4042811,-2.44140625,26.3671875,6.34765625,16.11328125,20.5078125
1530859466.4081874,9.765625,26.85546875,48.828125,42.48046875,16.11328125
1530859466.4120936,18.5546875,25.390625,65.4296875,76.171875,7.8125
1530859466.414125,16.11328125,27.34375,44.43359375,56.15234375,-10.7421875
1530859466.4180312,9.765625,29.78515625,19.53125,19.04296875,-30.76171875
1530859466.4219375,13.671875,26.85546875,44.43359375,29.296875,-18.06640625
1530859466.4258437,22.94921875,21.484375,75.68359375,71.2890625,-7.32421875
1530859466.42975,22.94921875,25.87890625,61.5234375,59.08203125,19.53125
1530859466.4336562,12.6953125,30.76171875,9.765625,18.5546875,-4.39453125
1530859466.4375625,5.859375,30.2734375,21.484375,12.20703125,-19.53125
1530859466.4414687,11.23046875,33.203125,84.47265625,63.4765625,30.2734375
1530859466.445375,14.16015625,31.25,71.2890625,78.61328125,35.15625
1530859466.4492812,7.8125,27.34375,-32.71484375,31.25,-11.23046875
1530859466.4531875,2.9296875,26.85546875,18.5546875,4.39453125,-21.97265625
1530859466.4570937,12.20703125,25.87890625,108.3984375,49.8046875,35.64453125
1530859466.459125,20.99609375,27.83203125,47.8515625,68.84765625,7.8125
1530859466.4630313,16.11328125,30.76171875,20.99609375,41.015625,13.18359375
1530859466.4669375,8.30078125,29.78515625,22.94921875,14.6484375,-11.71875
1530859466.4708438,4.8828125,28.3203125,41.9921875,37.59765625,-39.0625
1530859466.47475,23.92578125,33.203125,41.015625,74.70703125,33.203125
1530859466.4786563,25.87890625,38.0859375,1.953125,54.19921875,0.48828125
1530859466.4825625,7.32421875,37.109375,18.5546875,15.13671875,-31.25
1530859466.4864688,11.71875,36.62109375,27.83203125,18.5546875,-44.921875
1530859466.490375,19.04296875,38.0859375,-6.8359375,56.15234375,-38.57421875
1530859466.4942813,12.6953125,33.203125,19.04296875,48.33984375,-4.39453125
1530859466.4981875,-2.9296875,28.80859375,68.359375,17.578125,2.9296875
1530859466.5020938,-2.44140625,35.15625,32.2265625,5.859375,-26.85546875
1530859466.504125,15.13671875,38.0859375,50.29296875,48.33984375,-29.78515625
1530859466.5080314,17.578125,33.69140625,76.171875,72.265625,-2.44140625
1530859466.5119376,6.8359375,33.203125,39.0625,32.2265625,-14.6484375
1530859466.5158439,16.11328125,34.66796875,13.18359375,6.34765625,1.46484375
1530859466.51975,25.390625,33.203125,24.90234375,41.50390625,-22.4609375
1530859466.5236564,25.390625,32.71484375,38.57421875,69.82421875,-48.828125
1530859466.5275626,20.5078125,34.66796875,33.69140625,48.33984375,22.4609375
1530859466.5314689,13.18359375,28.3203125,14.6484375,25.87890625,7.32421875
1530859466.535375,13.18359375,25.390625,-16.6015625,43.45703125,-57.6171875
1530859466.5392814,14.6484375,37.109375,45.41015625,64.453125,-30.76171875
1530859466.5431876,17.578125,49.31640625,59.08203125,52.734375,-12.6953125
1530859466.5470939,24.90234375,57.12890625,16.11328125,19.04296875,-9.765625
1530859466.550125,18.5546875,55.6640625,28.3203125,17.578125,-26.3671875
1530859466.5540311,28.3203125,56.640625,58.10546875,62.5,-22.94921875
1530859466.5579374,46.38671875,66.40625,47.36328125,71.2890625,-5.37109375
1530859466.5618436,41.9921875,68.84765625,-3.41796875,31.73828125,2.9296875
1530859466.56575,35.15625,68.84765625,-19.04296875,18.5546875,-16.6015625
1530859466.5696561,48.33984375,71.77734375,7.32421875,65.4296875,-27.34375
1530859466.5735624,55.6640625,71.2890625,58.59375,89.35546875,26.3671875
1530859466.5774686,47.8515625,68.359375,-5.37109375,54.6875,8.7890625
1530859466.581375,44.921875,65.91796875,-39.55078125,12.6953125,-28.80859375
1530859466.5852811,48.33984375,64.94140625,53.22265625,43.9453125,-15.625
1530859466.5891874,55.17578125,65.91796875,33.203125,73.2421875,-19.04296875
1530859466.5930936,50.78125,62.98828125,2.9296875,45.41015625,15.13671875
1530859466.609125,37.109375,57.12890625,-2.9296875,10.7421875,-4.8828125
1530859466.6130311,36.1328125,56.640625,6.34765625,27.83203125,-39.55078125
1530859466.6169374,45.41015625,56.640625,41.9921875,68.359375,0.48828125
1530859466.6208436,41.015625,54.6875,41.9921875,53.7109375,20.5078125
1530859466.62475,29.296875,53.22265625,12.6953125,17.578125,-12.20703125
1530859466.6286561,30.2734375,50.29296875,-3.90625,17.08984375,-32.71484375
1530859466.6325624,35.64453125,44.43359375,53.22265625,61.5234375,9.27734375
1530859466.6364686,34.66796875,44.921875,11.23046875,62.5,5.859375
1530859466.640375,20.5078125,42.48046875,26.3671875,21.484375,-9.765625
1530859466.6442811,2.44140625,40.52734375,64.453125,14.6484375,-16.6015625
1530859466.6481874,16.11328125,45.41015625,22.94921875,50.78125,-37.109375
1530859466.6520936,31.73828125,44.43359375,49.8046875,64.94140625,7.32421875
1530859466.639125,27.34375,45.41015625,60.05859375,34.66796875,60.05859375
1530859466.6430314,21.97265625,49.31640625,22.94921875,5.37109375,35.64453125
1530859466.6469376,33.203125,53.22265625,21.484375,34.66796875,11.71875
1530859466.6508439,43.9453125,51.7578125,42.96875,64.94140625,9.765625
1530859466.65475,30.2734375,47.8515625,30.2734375,47.36328125,14.16015625
1530859466.6586564,20.99609375,49.8046875,7.32421875,21.484375,-7.8125
1530859466.6625626,24.90234375,45.41015625,9.27734375,33.69140625,-5.37109375
1530859466.6664689,34.1796875,43.9453125,54.19921875,74.21875,28.80859375
1530859466.670375,34.66796875,43.9453125,66.40625,70.3125,47.36328125
1530859466.6742814,22.4609375,39.0625,26.85546875,27.83203125,22.94921875
1530859466.6781876,24.90234375,39.55078125,-20.01953125,7.32421875,-6.34765625
1530859466.6820939,35.15625,40.52734375,18.06640625,43.45703125,-17.578125
1530859466.684125,41.015625,40.0390625,104.00390625,69.3359375,10.7421875
1530859466.6880312,40.0390625,41.9921875,50.29296875,38.57421875,34.66796875
1530859466.6919374,27.34375,41.015625,15.13671875,2.9296875,1.953125
1530859466.6958437,20.01953125,38.57421875,62.98828125,35.64453125,21.484375
1530859466.69975,25.390625,40.0390625,69.3359375,73.2421875,43.45703125
1530859466.7036562,19.53125,40.0390625,29.296875,53.7109375,24.90234375
1530859466.7075624,10.25390625,41.015625,-21.97265625,1.953125,4.39453125
1530859466.7114687,21.484375,41.50390625,30.76171875,26.85546875,-33.69140625
1530859466.715375,30.2734375,41.9921875,117.1875,83.0078125,-24.4140625
1530859466.7192812,27.34375,46.38671875,59.08203125,64.453125,-8.7890625
1530859466.7231874,24.90234375,46.38671875,22.94921875,26.85546875,-8.30078125
1530859466.7270937,24.90234375,41.9921875,37.59765625,23.92578125,-27.34375
1530859466.730125,28.3203125,41.015625,60.546875,58.59375,-31.25
1530859466.7340312,25.87890625,39.55078125,43.45703125,57.12890625,17.08984375
1530859466.7379375,19.04296875,38.0859375,17.578125,14.6484375,3.41796875
1530859466.7418437,20.99609375,39.55078125,29.296875,3.41796875,-48.33984375
1530859466.74575,25.390625,39.0625,50.78125,49.8046875,-29.78515625
1530859466.7496562,27.34375,40.52734375,18.06640625,62.98828125,-12.6953125
1530859466.7535625,17.08984375,41.50390625,1.953125,26.3671875,-14.16015625
1530859466.7574687,10.25390625,35.15625,60.05859375,2.44140625,-23.92578125
1530859466.761375,18.5546875,34.66796875,69.82421875,41.015625,16.11328125
1530859466.7652812,27.83203125,35.15625,46.38671875,66.40625,-8.30078125
1530859466.7691875,19.04296875,36.1328125,42.48046875,48.33984375,-17.08984375
1530859466.7730937,2.44140625,36.62109375,41.50390625,14.6484375,-6.8359375
1530859466.789125,2.44140625,33.203125,43.9453125,20.01953125,-31.73828125
1530859466.7930312,13.671875,34.1796875,66.89453125,61.5234375,26.3671875
1530859466.7969375,18.5546875,33.203125,66.89453125,53.22265625,38.0859375
1530859466.8008437,5.859375,30.76171875,64.453125,10.7421875,0.0
1530859466.80475,5.37109375,33.69140625,55.6640625,8.7890625,-33.69140625
1530859466.8086562,16.11328125,34.1796875,56.640625,52.24609375,-46.875
1530859466.8125625,21.97265625,32.71484375,80.078125,58.10546875,-13.671875
1530859466.8164687,17.578125,34.1796875,81.54296875,22.94921875,-13.671875
1530859466.820375,15.625,33.203125,44.43359375,5.37109375,-42.96875
1530859466.8242812,23.92578125,31.25,31.25,40.0390625,-57.6171875
1530859466.8281875,26.85546875,32.71484375,92.7734375,63.4765625,-25.390625
1530859466.8320937,22.4609375,29.296875,89.84375,42.96875,12.6953125
1530859466.834125,13.671875,29.296875,21.97265625,9.27734375,-19.04296875
1530859466.8380313,14.16015625,35.15625,50.29296875,35.15625,-19.53125
1530859466.8419375,18.5546875,34.1796875,89.84375,68.359375,18.5546875
1530859466.8458438,11.23046875,33.203125,63.96484375,51.7578125,33.203125
1530859466.84975,0.9765625,32.71484375,12.20703125,16.11328125,18.5546875
1530859466.8536563,7.32421875,32.71484375,-5.859375,26.3671875,23.4375
1530859466.8575625,19.04296875,34.66796875,40.52734375,70.80078125,51.26953125
1530859466.8614688,18.5546875,35.15625,43.45703125,64.453125,27.34375
1530859466.865375,10.7421875,34.1796875,-37.59765625,21.97265625,13.671875
1530859466.8692813,6.8359375,34.1796875,-40.52734375,1.953125,-33.203125
1530859466.8731875,17.08984375,33.203125,79.1015625,47.8515625,2.9296875
1530859466.8770938,23.92578125,33.69140625,63.4765625,65.91796875,76.66015625
1530859466.879125,17.08984375,38.0859375,4.8828125,25.87890625,26.3671875
1530859466.8830314,9.765625,35.15625,11.71875,5.37109375,-2.9296875
1530859466.8869376,14.16015625,32.2265625,31.25,44.43359375,20.5078125
1530859466.8908439,17.08984375,31.25,21.97265625,59.5703125,14.16015625
1530859466.89475,8.30078125,27.34375,17.578125,33.69140625,17.578125
1530859466.8986564,5.859375,25.87890625,9.765625,6.34765625,16.11328125
1530859466.9025626,18.5546875,26.3671875,24.4140625,26.3671875,32.2265625
1530859466.9064689,22.94921875,25.87890625,50.29296875,59.08203125,31.73828125
1530859466.910375,13.18359375,23.92578125,-7.32421875,36.62109375,-8.7890625
1530859466.9142814,3.90625,25.87890625,14.16015625,14.6484375,-7.32421875
1530859466.9181876,-0.48828125,28.3203125,62.98828125,38.57421875,17.578125
1530859466.9220939,9.765625,32.2265625,26.85546875,71.77734375,24.90234375
1530859466.925125,18.06640625,37.109375,29.78515625,60.05859375,22.94921875
1530859466.9290311,12.6953125,36.62109375,28.3203125,16.6015625,24.4140625
1530859466.9329374,13.671875,34.1796875,3.41796875,4.39453125,13.18359375
1530859466.9368436,22.4609375,33.69140625,17.578125,40.52734375,-15.13671875
1530859466.94075,24.4140625,31.73828125,36.1328125,54.6875,-16.11328125
1530859466.9446561,20.99609375,31.73828125,18.06640625,25.87890625,-2.44140625
1530859466.9485624,16.11328125,29.78515625,33.69140625,-6.34765625,-11.23046875
1530859466.9524686,19.04296875,25.87890625,44.921875,19.53125,-36.62109375
1530859466.956375,20.99609375,23.92578125,66.40625,38.57421875,-31.25
1530859466.9602811,11.23046875,22.4609375,106.4453125,19.04296875,-63.96484375
1530859466.9641874,-2.44140625,23.4375,71.77734375,-10.7421875,-78.61328125
1530859466.9680936,2.9296875,24.90234375,86.9140625,7.8125,-25.390625
1530859466.969125,12.6953125,22.4609375,115.72265625,48.828125,13.671875
1530859466.9730313,6.34765625,21.484375,96.6796875,35.15625,28.80859375
1530859466.9769375,-1.953125,23.4375,37.59765625,-0.48828125,-12.6953125
1530859466.9808438,-8.30078125,24.90234375,52.734375,1.953125,-34.66796875
1530859466.98475,-2.44140625,24.4140625,93.75,48.33984375,0.9765625
1530859466.9886563,-0.48828125,24.4140625,57.12890625,50.29296875,-16.6015625
1530859466.9925625,-9.27734375,22.94921875,31.25,7.32421875,-45.41015625
1530859466.9964688,-6.8359375,23.4375,12.20703125,-9.765625,-48.828125
1530859467.000375,3.41796875,24.90234375,74.21875,33.203125,-35.15625
1530859467.0042813,10.7421875,23.92578125,121.58203125,62.01171875,-2.9296875
1530859467.0081875,3.90625,23.4375,63.96484375,29.296875,-6.8359375
1530859467.0120938,0.48828125,20.99609375,41.50390625,1.46484375,-45.41015625
1530859467.015125,3.90625,21.484375,89.84375,41.015625,-35.15625
1530859467.0190313,7.8125,24.90234375,79.1015625,63.96484375,-9.27734375
1530859467.0229375,17.08984375,28.3203125,32.2265625,42.48046875,30.76171875
1530859467.0268438,16.11328125,28.80859375,26.85546875,16.11328125,17.08984375
1530859467.03075,17.578125,24.4140625,44.921875,30.76171875,-38.0859375
1530859467.0346563,29.78515625,21.484375,68.359375,69.3359375,14.6484375
1530859467.0385625,27.34375,24.90234375,39.55078125,48.33984375,10.25390625
1530859467.0424688,10.7421875,29.296875,34.66796875,5.37109375,-48.33984375
1530859467.046375,3.90625,29.78515625,107.91015625,20.99609375,-55.17578125
1530859467.0502813,13.18359375,27.34375,116.69921875,71.2890625,-23.4375
1530859467.0541875,16.6015625,27.34375,97.16796875,63.96484375,6.8359375
1530859467.0580938,9.27734375,29.78515625,45.41015625,21.484375,-11.23046875
1530859467.059125,9.27734375,29.296875,51.26953125,10.7421875,-3.41796875
1530859467.0630312,19.53125,30.2734375,98.14453125,51.7578125,50.29296875
1530859467.0669374,20.01953125,29.78515625,82.03125,69.3359375,52.24609375
1530859467.0708437,12.6953125,31.73828125,71.2890625,36.1328125,11.23046875
1530859467.07475,6.8359375,30.2734375,35.64453125,7.8125,-9.27734375
1530859467.0786562,5.859375,24.4140625,42.48046875,41.015625,14.16015625
1530859467.0825624,15.13671875,27.34375,45.41015625,63.96484375,37.59765625
1530859467.0864687,18.5546875,33.69140625,69.82421875,37.59765625,9.765625
1530859467.090375,18.06640625,35.64453125,113.28125,6.34765625,-22.4609375
1530859467.0942812,20.99609375,34.66796875,76.171875,21.97265625,-27.83203125
1530859467.0981874,24.4140625,34.1796875,84.47265625,71.2890625,5.859375
1530859467.1020937,12.20703125,31.73828125,100.09765625,60.546875,9.765625
1530859467.119125,-7.32421875,28.3203125,67.87109375,20.01953125,-3.41796875
1530859467.1230311,-7.8125,29.296875,35.64453125,14.6484375,-9.27734375
1530859467.1269374,8.30078125,30.2734375,51.26953125,54.6875,21.484375
1530859467.1308436,20.01953125,28.80859375,78.125,64.94140625,33.69140625
1530859467.13475,11.23046875,26.85546875,64.453125,35.15625,21.97265625
1530859467.1386561,-2.44140625,27.83203125,0.9765625,13.18359375,-11.23046875
1530859467.1425624,7.32421875,30.76171875,43.9453125,42.96875,-40.52734375
1530859467.1464686,16.6015625,30.76171875,140.13671875,74.21875,-31.73828125
1530859467.150375,8.30078125,28.3203125,93.75,57.12890625,1.46484375
1530859467.1542811,4.8828125,28.80859375,32.71484375,14.6484375,13.18359375
1530859467.1581874,11.71875,28.80859375,70.3125,35.15625,-26.85546875
1530859467.1620936,12.20703125,26.85546875,103.515625,70.3125,-11.23046875
1530859467.164125,0.0,24.90234375,63.4765625,45.41015625,26.85546875
1530859467.1680312,-4.8828125,22.4609375,34.66796875,6.8359375,6.8359375
1530859467.1719375,5.37109375,23.4375,59.08203125,19.53125,-0.48828125
1530859467.1758437,21.484375,25.87890625,85.44921875,67.87109375,43.45703125
1530859467.17975,21.484375,26.3671875,54.6875,54.6875,33.203125
1530859467.1836562,10.25390625,28.3203125,29.296875,14.16015625,44.43359375
1530859467.1875625,9.765625,31.25,29.296875,4.8828125,60.05859375
1530859467.1914687,20.01953125,33.203125,88.37890625,46.875,43.9453125
1530859467.195375,28.3203125,35.64453125,85.44921875,62.98828125,18.5546875
1530859467.1992812,18.06640625,34.1796875,-14.16015625,11.71875,-46.38671875
1530859467.2031875,4.8828125,30.76171875,42.96875,-12.6953125,-47.8515625
1530859467.2070937,12.20703125,26.3671875,104.00390625,44.921875,4.39453125
1530859467.209125,19.53125,23.4375,55.6640625,67.87109375,36.62109375
1530859467.2130313,17.578125,24.4140625,24.4140625,32.71484375,58.59375
1530859467.2169375,7.32421875,25.87890625,28.3203125,-2.44140625,41.9921875
1530859467.2208438,3.41796875,22.94921875,56.15234375,19.53125,36.62109375
1530859467.22475,17.08984375,20.99609375,47.8515625,56.15234375,26.85546875
1530859467.2286563,16.11328125,21.484375,6.34765625,34.1796875,-10.25390625
1530859467.2325625,-7.8125,19.04296875,18.5546875,0.0,31.25
1530859467.2364688,-12.20703125,18.06640625,54.6875,9.27734375,62.5
1530859467.240375,0.0,20.99609375,9.765625,50.78125,32.2265625
1530859467.2442813,-3.90625,24.90234375,12.20703125,48.33984375,50.78125
1530859467.2481875,-12.20703125,27.34375,60.546875,12.20703125,16.6015625
1530859467.2520938,-7.8125,26.3671875,32.2265625,1.46484375,-5.37109375
1530859467.254125,8.7890625,26.3671875,35.64453125,38.57421875,-8.7890625
1530859467.2580314,21.484375,28.3203125,45.41015625,53.22265625,-7.32421875
1530859467.2619376,8.7890625,28.3203125,36.62109375,24.4140625,28.80859375
1530859467.2658439,-1.953125,25.87890625,-2.44140625,-4.39453125,-8.7890625
1530859467.26975,2.9296875,24.90234375,14.16015625,34.1796875,-19.04296875
1530859467.2736564,4.8828125,23.4375,49.8046875,64.94140625,41.015625
1530859467.2775626,0.0,19.53125,42.48046875,31.73828125,52.24609375
1530859467.2814689,-9.27734375,16.6015625,15.625,-6.34765625,0.9765625
1530859467.285375,-5.37109375,15.13671875,-30.76171875,7.8125,-34.1796875
1530859467.2892814,2.9296875,16.11328125,50.29296875,50.78125,-5.37109375
1530859467.2931876,-0.48828125,17.578125,69.82421875,32.2265625,31.73828125
1530859467.2970939,-9.765625,19.53125,-32.2265625,-10.7421875,0.0
1530859467.300125,-7.8125,19.04296875,0.0,-2.44140625,-37.59765625
1530859467.3040311,-3.41796875,16.11328125,72.75390625,46.875,-3.41796875
1530859467.3079374,-4.39453125,20.5078125,48.33984375,55.6640625,10.25390625
1530859467.3118436,-16.11328125,20.99609375,-4.8828125,9.765625,-50.78125
1530859467.31575,-20.5078125,19.04296875,-7.32421875,-12.6953125,-25.87890625
1530859467.3196561,-1.953125,22.94921875,20.5078125,41.50390625,14.16015625
1530859467.3235624,5.37109375,22.94921875,60.546875,62.98828125,8.7890625
1530859467.3274686,-1.46484375,24.90234375,1.953125,20.99609375,8.7890625
1530859467.331375,1.46484375,28.3203125,-42.96875,-18.06640625,-44.43359375
1530859467.3352811,11.23046875,27.83203125,62.01171875,27.83203125,-46.38671875
1530859467.3391874,14.6484375,25.87890625,83.0078125,71.77734375,27.83203125
1530859467.3430936,11.71875,27.34375,42.48046875,43.45703125,44.921875
1530859467.344125,2.44140625,29.78515625,19.53125,9.27734375,18.5546875
1530859467.3480313,-0.48828125,25.390625,2.9296875,14.6484375,-23.4375
1530859467.3519375,15.13671875,21.97265625,19.04296875,56.15234375,-7.32421875
1530859467.3558438,17.578125,22.4609375,44.921875,52.734375,29.296875
1530859467.35975,3.90625,26.3671875,13.671875,10.25390625,19.53125
1530859467.3636563,5.37109375,28.80859375,-5.37109375,6.8359375,-21.484375
1530859467.3675625,18.06640625,26.85546875,44.43359375,57.6171875,-15.13671875
1530859467.3714688,20.01953125,27.83203125,9.27734375,60.05859375,13.671875
1530859467.375375,6.8359375,25.87890625,18.5546875,18.5546875,-7.32421875
1530859467.3792813,1.953125,23.92578125,62.98828125,7.8125,-28.3203125
1530859467.3831875,6.34765625,25.390625,30.2734375,43.9453125,-38.0859375
1530859467.3870938,16.6015625,21.484375,52.734375,62.98828125,-5.37109375
1530859467.390125,6.8359375,21.97265625,42.48046875,36.1328125,50.78125
1530859467.3940313,-8.30078125,23.4375,2.9296875,0.0,43.45703125
1530859467.3979375,5.37109375,25.390625,0.48828125,20.01953125,11.23046875
1530859467.4018438,18.5546875,25.390625,42.96875,58.59375,20.5078125
1530859467.40575,9.765625,21.484375,37.59765625,40.0390625,10.7421875
1530859467.4096563,-2.9296875,23.92578125,-7.32421875,0.9765625,22.4609375
1530859467.4135625,-5.859375,24.90234375,-14.16015625,11.23046875,1.953125
1530859467.4174688,0.48828125,24.4140625,29.78515625,45.8984375,-29.296875
1530859467.421375,6.8359375,23.4375,90.33203125,46.875,-14.16015625
1530859467.4252813,10.25390625,27.83203125,35.64453125,16.11328125,19.04296875
1530859467.4291875,11.23046875,31.73828125,4.39453125,-1.953125,7.8125
1530859467.4330938,16.6015625,27.34375,52.24609375,43.45703125,23.4375
1530859467.449125,17.578125,23.92578125,62.5,63.96484375,65.4296875
1530859467.4530313,4.39453125,22.4609375,17.578125,22.94921875,27.34375
1530859467.4569376,-6.8359375,20.99609375,-9.765625,-11.23046875,-4.8828125
1530859467.4608438,1.953125,21.484375,35.15625,27.83203125,-1.953125
1530859467.46475,14.16015625,20.5078125,42.96875,59.08203125,7.32421875
1530859467.4686563,7.8125,19.04296875,13.671875,31.73828125,40.0390625
1530859467.4725626,-0.9765625,21.97265625,-28.3203125,-16.6015625,20.01953125
1530859467.4764688,-0.9765625,24.4140625,10.7421875,3.41796875,-30.76171875
1530859467.480375,8.7890625,24.4140625,115.72265625,61.5234375,10.7421875
1530859467.4842813,2.9296875,22.4609375,41.015625,42.48046875,36.62109375
1530859467.4881876,-12.6953125,18.06640625,-17.08984375,-14.16015625,-7.8125
1530859467.4920938,-7.8125,16.6015625,21.484375,-10.25390625,-27.34375
1530859467.479125,5.859375,17.578125,57.12890625,44.43359375,19.53125
1530859467.4830313,13.671875,16.11328125,18.5546875,47.8515625,49.8046875
1530859467.4869375,0.0,16.11328125,-20.5078125,5.859375,14.6484375
1530859467.4908438,-11.23046875,18.5546875,27.83203125,-4.39453125,33.69140625
1530859467.49475,3.90625,19.04296875,51.26953125,44.921875,39.0625
1530859467.4986563,16.11328125,22.94921875,9.27734375,65.4296875,33.69140625
1530859467.5025625,8.7890625,27.83203125,1.46484375,30.2734375,6.8359375
1530859467.5064688,-0.48828125,22.94921875,37.59765625,-9.27734375,-48.828125
1530859467.510375,6.8359375,20.99609375,61.03515625,27.34375,-29.296875
1530859467.5142813,21.484375,21.97265625,23.92578125,60.05859375,19.53125
1530859467.5181875,14.6484375,22.4609375,-1.46484375,25.390625,23.4375
1530859467.5220938,1.953125,26.3671875,51.26953125,-2.44140625,19.04296875
1530859467.539125,8.7890625,20.5078125,41.50390625,21.484375,21.97265625
1530859467.5430312,22.4609375,20.01953125,56.15234375,61.5234375,8.30078125
1530859467.5469375,17.08984375,16.6015625,59.08203125,44.921875,10.25390625
1530859467.5508437,-9.27734375,13.18359375,25.390625,-3.90625,-1.953125
1530859467.55475,-11.23046875,21.484375,18.06640625,-4.39453125,-9.27734375
1530859467.5586562,12.6953125,21.97265625,46.875,48.33984375,30.76171875
1530859467.5625625,20.5078125,24.90234375,55.6640625,52.734375,25.390625
1530859467.5664687,4.39453125,32.71484375,35.15625,4.39453125,-20.5078125
1530859467.570375,-3.90625,29.78515625,20.5078125,-14.16015625,-8.30078125
1530859467.5742812,8.7890625,27.83203125,17.08984375,32.71484375,7.8125
1530859467.5781875,15.625,27.34375,79.58984375,52.24609375,38.0859375
1530859467.5820937,12.6953125,22.4609375,69.82421875,18.5546875,25.390625
1530859467.584125,5.859375,15.13671875,6.8359375,-16.11328125,-22.4609375
1530859467.5880313,3.90625,18.06640625,35.64453125,19.53125,-18.5546875
1530859467.5919375,13.18359375,28.3203125,102.5390625,60.546875,38.57421875
1530859467.5958438,10.25390625,32.2265625,54.6875,35.64453125,36.62109375
1530859467.59975,6.8359375,30.2734375,-17.08984375,-2.44140625,-26.3671875
1530859467.6036563,19.53125,25.87890625,19.53125,15.13671875,-37.109375
1530859467.6075625,42.48046875,23.92578125,79.1015625,74.21875,-12.6953125
1530859467.6114688,47.36328125,23.92578125,96.19140625,80.078125,3.90625
1530859467.615375,40.52734375,26.85546875,29.78515625,40.0390625,-22.4609375
1530859467.6192813,47.8515625,28.80859375,46.875,30.2734375,-41.50390625
1530859467.6231875,62.01171875,27.34375,158.203125,96.19140625,-13.18359375
1530859467.6270938,77.1484375,28.3203125,118.65234375,117.67578125,-26.85546875
1530859467.629125,80.56640625,27.83203125,47.36328125,73.2421875,-46.38671875
1530859467.6330314,69.82421875,25.87890625,-7.32421875,62.5,-50.29296875
1530859467.6369376,80.56640625,23.92578125,-4.39453125,125.0,-32.2265625
1530859467.6408439,95.21484375,22.94921875,0.0,145.5078125,21.97265625
1530859467.64475,89.35546875,26.85546875,-34.66796875,103.515625,16.11328125
1530859467.6486564,77.1484375,26.85546875,-41.50390625,69.3359375,-24.4140625
1530859467.6525626,81.0546875,24.90234375,34.66796875,94.7265625,-9.27734375
1530859467.6564689,86.9140625,27.34375,107.91015625,144.53125,38.57421875
1530859467.660375,93.26171875,30.2734375,13.671875,126.953125,-2.44140625
1530859467.6642814,95.703125,27.83203125,20.5078125,83.984375,-42.96875
1530859467.6681876,94.23828125,26.85546875,100.09765625,108.88671875,-0.48828125
1530859467.6720939,109.375,27.34375,61.03515625,154.78515625,14.6484375
1530859467.675125,110.83984375,28.80859375,55.6640625,142.578125,13.671875
1530859467.6790311,93.26171875,29.296875,71.77734375,103.515625,-11.23046875
1530859467.6829374,88.37890625,31.25,62.5,97.16796875,-17.578125
1530859467.6868436,105.46875,33.69140625,73.73046875,141.11328125,8.7890625
1530859467.69075,105.95703125,31.25,92.7734375,145.5078125,14.6484375
1530859467.6946561,85.9375,29.296875,130.859375,103.515625,-8.7890625
1530859467.6985624,76.66015625,27.34375,208.49609375,74.70703125,-34.1796875
1530859467.7024686,91.30859375,27.83203125,247.0703125,107.421875,-52.24609375
1530859467.706375,97.16796875,26.3671875,292.96875,125.9765625,-36.62109375
1530859467.7102811,83.49609375,27.34375,357.91015625,105.95703125,-1.46484375
1530859467.7141874,65.4296875,29.78515625,296.875,74.70703125,-21.484375
1530859467.7180936,65.4296875,26.3671875,288.0859375,83.0078125,-20.01953125
1530859467.719125,81.54296875,24.4140625,315.91796875,122.55859375,-4.39453125
1530859467.7230313,77.63671875,24.90234375,309.5703125,104.00390625,9.27734375
1530859467.7269375,62.98828125,27.83203125,258.7890625,51.26953125,14.6484375
1530859467.7308438,59.5703125,27.83203125,233.88671875,61.5234375,-17.08984375
1530859467.73475,62.5,25.390625,270.01953125,117.67578125,-28.80859375
1530859467.7386563,57.12890625,22.4609375,240.234375,109.375,-12.6953125
1530859467.7425625,43.9453125,24.90234375,226.5625,57.12890625,-19.53125
1530859467.7464688,40.0390625,25.390625,181.640625,28.3203125,-57.6171875
1530859467.750375,46.38671875,25.87890625,231.93359375,73.2421875,-22.4609375
1530859467.7542813,45.41015625,26.3671875,272.94921875,104.4921875,6.34765625
1530859467.7581875,36.62109375,22.94921875,187.01171875,61.5234375,-52.24609375
1530859467.7620938,25.87890625,22.94921875,159.66796875,28.80859375,-35.15625
1530859467.764125,30.2734375,21.97265625,212.40234375,73.73046875,24.4140625
1530859467.7680314,44.921875,20.99609375,223.14453125,105.46875,34.66796875
1530859467.7719376,39.0625,25.87890625,148.92578125,65.91796875,31.73828125
1530859467.7758439,28.80859375,29.296875,126.953125,25.390625,-1.953125
1530859467.77975,32.2265625,26.85546875,170.41015625,51.26953125,-14.16015625
1530859467.7836564,45.41015625,27.34375,161.62109375,96.6796875,31.73828125
1530859467.7875626,48.828125,30.76171875,110.3515625,76.66015625,45.8984375
1530859467.7914689,36.62109375,28.3203125,90.33203125,23.92578125,-21.97265625
1530859467.795375,35.64453125,26.3671875,190.4296875,32.71484375,-26.3671875
1530859467.7992814,39.55078125,28.80859375,204.1015625,83.984375,14.16015625
1530859467.8031876,31.25,28.3203125,151.3671875,69.82421875,6.8359375
1530859467.8070939,21.484375,29.296875,135.25390625,24.90234375,-0.48828125
1530859467.809125,17.08984375,28.3203125,120.1171875,11.23046875,1.46484375
1530859467.8130312,22.94921875,25.87890625,158.69140625,57.12890625,12.20703125
1530859467.8169374,37.59765625,23.4375,148.92578125,76.171875,33.69140625
1530859467.8208437,38.57421875,21.97265625,114.2578125,50.29296875,13.671875
1530859467.82475,24.4140625,21.484375,104.4921875,20.01953125,-34.1796875
1530859467.8286562,25.87890625,24.90234375,115.234375,48.828125,-5.859375
1530859467.8325624,35.64453125,28.3203125,69.82421875,71.2890625,0.0
1530859467.8364687,22.94921875,27.83203125,87.890625,37.109375,-1.953125
1530859467.840375,-1.46484375,26.85546875,117.1875,2.9296875,-5.37109375
1530859467.8442812,-2.44140625,23.92578125,64.453125,16.6015625,-24.4140625
1530859467.8481874,10.25390625,23.92578125,90.8203125,61.5234375,-21.97265625
1530859467.8520937,12.6953125,26.3671875,100.09765625,50.29296875,-37.59765625
1530859467.854125,1.953125,28.80859375,66.40625,7.32421875,-38.57421875
1530859467.8580313,5.37109375,30.76171875,43.9453125,-0.48828125,-2.9296875
1530859467.8619375,29.78515625,31.25,58.10546875,50.29296875,12.20703125
1530859467.8658438,28.3203125,28.80859375,90.8203125,69.82421875,9.765625
1530859467.86975,7.8125,26.3671875,71.2890625,27.83203125,19.53125
1530859467.8736563,6.8359375,27.83203125,-28.80859375,-2.44140625,-62.01171875
1530859467.8775625,21.484375,26.3671875,18.06640625,40.52734375,-101.5625
1530859467.8814688,22.94921875,21.97265625,138.18359375,71.77734375,-16.11328125
1530859467.885375,12.20703125,25.390625,76.171875,38.0859375,-1.46484375
1530859467.8892813,7.32421875,29.296875,9.765625,0.48828125,-47.8515625
1530859467.8931875,20.99609375,26.85546875,49.8046875,32.2265625,-47.36328125
1530859467.8970938,37.59765625,27.34375,81.0546875,69.3359375,-20.5078125
1530859467.915125,34.66796875,32.2265625,37.109375,51.7578125,-5.37109375
1530859467.9190311,21.484375,29.296875,-1.953125,21.97265625,14.16015625
1530859467.9229374,22.94921875,26.3671875,25.87890625,35.15625,6.34765625
1530859467.9268436,42.96875,29.78515625,76.66015625,81.0546875,14.16015625
1530859467.93075,42.96875,28.3203125,41.50390625,70.80078125,-13.671875
1530859467.9346561,26.3671875,24.90234375,-8.30078125,18.06640625,-31.73828125
1530859467.9385624,22.4609375,22.94921875,16.11328125,4.8828125,-22.94921875
1530859467.9424686,36.62109375,26.3671875,71.77734375,57.6171875,-6.34765625
1530859467.946375,39.0625,29.78515625,79.1015625,69.82421875,19.04296875
1530859467.9502811,20.99609375,30.76171875,-8.7890625,17.578125,-4.39453125
1530859467.9541874,11.71875,28.3203125,13.671875,-8.7890625,-48.828125
1530859467.9580936,24.90234375,26.85546875,81.0546875,48.828125,-15.13671875
1530859467.959125,35.15625,28.80859375,44.43359375,81.0546875,0.0
1530859467.9630313,26.3671875,29.296875,20.01953125,43.9453125,-13.671875
1530859467.9669375,13.671875,26.85546875,35.64453125,4.8828125,0.48828125
1530859467.9708438,16.6015625,27.83203125,41.015625,31.73828125,-3.41796875
1530859467.97475,23.4375,29.296875,37.59765625,71.2890625,-11.23046875
1530859467.9786563,22.4609375,32.71484375,19.04296875,55.6640625,-12.20703125
1530859467.9825625,13.671875,34.1796875,29.296875,15.625,0.9765625
1530859467.9864688,10.25390625,28.80859375,71.77734375,18.5546875,-18.5546875
1530859467.990375,23.92578125,26.85546875,40.0390625,65.4296875,-1.46484375
1530859467.9942813,32.2265625,31.25,0.9765625,47.36328125,20.01953125
1530859467.9981875,17.578125,33.69140625,59.5703125,5.37109375,12.20703125
1530859468.0020938,8.30078125,31.73828125,43.45703125,2.44140625,-4.39453125
1530859468.004125,15.625,31.25,46.875,50.78125,-17.578125
1530859468.0080314,11.71875,27.83203125,56.640625,68.359375,-23.92578125
1530859468.0119376,-1.46484375,22.4609375,32.2265625,26.3671875,-14.6484375
1530859468.0158439,-8.30078125,21.97265625,12.6953125,-1.46484375,8.30078125
1530859468.01975,3.41796875,22.94921875,20.99609375,35.64453125,0.48828125
1530859468.0236564,27.83203125,25.87890625,41.015625,70.3125,20.01953125
1530859468.0275626,28.80859375,25.87890625,37.109375,46.38671875,40.0390625
1530859468.0314689,1.46484375,17.08984375,42.96875,4.8828125,10.7421875
1530859468.035375,-2.9296875,12.20703125,11.23046875,12.6953125,-22.94921875
1530859468.0392814,13.18359375,13.18359375,82.51953125,60.05859375,18.06640625
1530859468.0431876,10.7421875,12.20703125,121.09375,56.15234375,28.3203125
1530859468.0470939,-16.11328125,7.8125,14.6484375,1.953125,-25.390625
1530859468.049125,-27.34375,0.0,40.52734375,-1.46484375,-18.5546875
1530859468.0530312,-4.8828125,-0.9765625,125.0,54.6875,29.78515625
1530859468.0569375,5.859375,8.30078125,84.47265625,52.734375,38.57421875
1530859468.0608437,0.9765625,13.671875,2.44140625,7.8125,12.6953125
1530859468.06475,4.39453125,16.6015625,-5.859375,-7.8125,-11.71875
1530859468.0686562,9.765625,20.01953125,34.1796875,35.15625,-1.953125
1530859468.0725625,9.27734375,16.6015625,76.66015625,62.01171875,21.97265625
1530859468.0764687,1.953125,13.18359375,19.04296875,30.76171875,25.87890625
1530859468.080375,-11.23046875,14.16015625,-15.13671875,-12.20703125,16.11328125
1530859468.0842812,-14.6484375,12.6953125,96.19140625,23.92578125,44.43359375
1530859468.0881875,-1.46484375,12.20703125,103.515625,74.21875,60.546875
1530859468.0920937,2.44140625,13.671875,40.0390625,39.55078125,41.9921875
1530859468.094125,-7.8125,12.6953125,8.30078125,-3.41796875,34.66796875
1530859468.0980313,0.9765625,12.6953125,19.53125,19.53125,-10.25390625
1530859468.1019375,18.06640625,18.06640625,44.43359375,65.4296875,3.90625
1530859468.1058438,19.04296875,25.390625,67.87109375,62.5,45.41015625
1530859468.10975,7.32421875,26.85546875,30.76171875,20.01953125,-4.8828125
1530859468.1136563,7.32421875,26.3671875,4.39453125,10.25390625,-28.3203125
1530859468.1175625,24.90234375,27.83203125,68.84765625,55.6640625,-2.9296875
1530859468.1214688,26.85546875,25.390625,32.2265625,46.875,11.23046875
1530859468.125375,6.34765625,24.90234375,20.5078125,4.8828125,-6.34765625
1530859468.1292813,2.9296875,25.390625,78.61328125,0.9765625,-18.06640625
1530859468.1331875,14.6484375,20.99609375,43.9453125,43.9453125,-29.78515625
1530859468.1370938,20.01953125,21.97265625,41.9921875,62.01171875,3.90625
1530859468.139125,19.04296875,25.87890625,41.015625,24.4140625,5.859375
1530859468.1430314,12.20703125,23.92578125,21.97265625,-3.90625,-36.1328125
1530859468.1469376,8.7890625,22.4609375,8.30078125,24.90234375,-26.3671875
1530859468.1508439,17.578125,23.92578125,43.9453125,64.94140625,31.25
1530859468.15475,21.484375,24.4140625,51.7578125,42.96875,92.7734375
1530859468.1586564,17.08984375,24.4140625,-9.765625,-3.41796875,43.45703125
1530859468.1625626,23.92578125,26.85546875,-18.5546875,8.30078125,-12.20703125
1530859468.1664689,31.73828125,28.80859375,28.3203125,57.12890625,-20.5078125
1530859468.170375,28.3203125,25.87890625,103.515625,59.5703125,0.48828125
1530859468.1742814,17.08984375,26.3671875,27.83203125,18.5546875,-38.0859375
1530859468.1781876,17.578125,28.3203125,-1.46484375,5.37109375,-61.5234375
1530859468.1820939,33.203125,27.83203125,64.94140625,55.17578125,-18.06640625
1530859468.184125,35.64453125,27.34375,68.84765625,68.84765625,5.859375
1530859468.1880312,20.99609375,26.3671875,30.2734375,24.4140625,21.97265625
1530859468.1919374,10.7421875,24.4140625,1.953125,-8.7890625,-7.32421875
1530859468.1958437,10.7421875,23.92578125,60.05859375,33.203125,39.0625
1530859468.19975,15.13671875,24.90234375,70.3125,65.4296875,33.203125
1530859468.2036562,16.11328125,25.87890625,16.11328125,32.71484375,-32.2265625
1530859468.2075624,19.04296875,29.78515625,-23.4375,-13.671875,-33.69140625
1530859468.2114687,23.4375,27.83203125,17.08984375,11.71875,-37.109375
1530859468.215375,39.55078125,25.390625,102.05078125,63.96484375,-12.20703125
1530859468.2192812,41.50390625,30.76171875,53.22265625,49.8046875,-1.46484375
1530859468.2231874,21.484375,32.71484375,-2.9296875,16.11328125,0.48828125
1530859468.2270937,14.16015625,29.296875,32.2265625,15.13671875,2.9296875
1530859468.229125,16.6015625,24.90234375,69.3359375,58.10546875,8.7890625
1530859468.2330313,19.04296875,24.4140625,33.69140625,56.15234375,-0.9765625
1530859468.2369375,9.765625,27.83203125,2.9296875,6.34765625,-13.18359375
1530859468.2408438,-2.9296875,27.83203125,35.15625,-6.34765625,-9.765625
1530859468.24475,4.39453125,26.85546875,67.87109375,45.8984375,-2.9296875
1530859468.2486563,16.6015625,25.390625,28.3203125,56.15234375,1.953125
1530859468.2525625,13.18359375,25.390625,-0.9765625,11.23046875,-6.8359375
1530859468.2564688,6.34765625,26.3671875,57.12890625,-13.18359375,-28.80859375
1530859468.260375,16.11328125,26.3671875,90.33203125,30.76171875,-24.90234375
1530859468.2642813,29.78515625,27.83203125,79.1015625,67.3828125,7.8125
1530859468.2681875,21.97265625,27.83203125,28.80859375,36.62109375,11.71875
1530859468.2720938,-1.46484375,27.83203125,11.71875,-9.765625,5.859375
1530859468.289125,-4.8828125,28.3203125,41.9921875,13.18359375,-9.27734375
1530859468.2930312,9.765625,28.80859375,72.75390625,63.96484375,-3.41796875
1530859468.2969375,13.671875,24.90234375,48.828125,44.43359375,-1.953125
1530859468.3008437,-5.37109375,20.5078125,4.39453125,-6.34765625,-41.9921875
1530859468.30475,-14.6484375,19.53125,19.04296875,2.44140625,-17.08984375
1530859468.3086562,26.85546875,21.484375,30.2734375,72.265625,47.8515625
1530859468.3125625,41.9921875,26.3671875,33.203125,68.84765625,21.484375
1530859468.3164687,-3.90625,26.85546875,40.0390625,-3.41796875,6.34765625
1530859468.320375,-22.4609375,25.87890625,15.13671875,-26.3671875,16.6015625
1530859468.3242812,-17.08984375,25.87890625,14.6484375,17.578125,13.18359375
1530859468.3281875,-20.5078125,20.99609375,76.171875,33.203125,25.390625
1530859468.3320937,-29.78515625,22.94921875,61.5234375,-2.9296875,62.5
1530859468.350125,-51.7578125,25.87890625,-20.99609375,-53.7109375,37.59765625
1530859468.3540313,-52.24609375,22.94921875,-3.41796875,-36.62109375,-31.25
1530859468.3579376,-43.9453125,21.97265625,81.54296875,-7.8125,12.6953125
1530859468.3618438,-66.89453125,21.97265625,38.57421875,-51.7578125,27.83203125
1530859468.36575,-88.8671875,24.90234375,-39.55078125,-103.515625,-19.04296875
1530859468.3696563,-93.75,26.85546875,-5.859375,-94.23828125,-18.5546875
1530859468.3735626,-93.75,21.97265625,62.5,-53.22265625,31.25
1530859468.3774688,-96.19140625,22.94921875,46.38671875,-69.82421875,30.2734375
1530859468.381375,-125.48828125,22.94921875,-49.8046875,-131.8359375,-21.484375
1530859468.3852813,-138.671875,25.390625,-33.69140625,-151.3671875,-28.3203125
1530859468.3891876,-128.90625,28.80859375,96.19140625,-99.609375,0.0
1530859468.3930938,-112.79296875,26.85546875,61.5234375,-83.984375,-6.8359375
1530859468.379125,-108.3984375,30.2734375,-4.39453125,-125.48828125,-9.27734375
1530859468.3830314,-122.55859375,29.78515625,-8.30078125,-144.53125,-43.9453125
1530859468.3869376,-118.1640625,26.3671875,42.96875,-86.9140625,-19.04296875
1530859468.3908439,-97.65625,27.83203125,46.875,-49.8046875,37.59765625
1530859468.39475,-94.23828125,32.2265625,-15.13671875,-84.9609375,19.04296875
1530859468.3986564,-106.4453125,31.73828125,-29.296875,-122.55859375,11.71875
1530859468.4025626,-100.09765625,27.83203125,23.92578125,-82.51953125,18.06640625
1530859468.4064689,-71.2890625,29.78515625,63.96484375,-26.85546875,20.5078125
1530859468.410375,-59.08203125,30.2734375,19.53125,-45.41015625,-1.46484375
1530859468.4142814,-63.96484375,26.85546875,-15.625,-84.9609375,-53.22265625
1530859468.4181876,-49.31640625,24.90234375,24.90234375,-52.24609375,-34.1796875
1530859468.4220939,-28.3203125,24.90234375,30.76171875,11.71875,-13.18359375
1530859468.424125,-28.3203125,25.87890625,-33.69140625,-2.9296875,-8.7890625
1530859468.4280312,-38.0859375,24.90234375,-9.27734375,-43.9453125,23.92578125
1530859468.4319375,-38.0859375,25.390625,26.3671875,-35.64453125,25.87890625
1530859468.4358437,-19.53125,27.83203125,19.04296875,20.01953125,51.26953125
1530859468.43975,-7.32421875,27.34375,9.765625,36.62109375,65.4296875
1530859468.4436562,-19.53125,26.85546875,-24.90234375,-7.8125,21.97265625
1530859468.4475625,-21.97265625,27.34375,-27.83203125,-37.59765625,-6.34765625
1530859468.4514687,-5.37109375,24.4140625,-17.08984375,10.25390625,-5.859375
1530859468.455375,1.953125,19.04296875,10.7421875,37.59765625,-8.7890625
1530859468.4592812,-3.41796875,19.53125,69.82421875,10.25390625,18.06640625
1530859468.4631875,-11.23046875,20.01953125,18.5546875,-25.390625,13.18359375
1530859468.4670937,-10.25390625,19.53125,6.34765625,-3.41796875,-18.5546875
1530859468.469125,4.39453125,20.99609375,58.10546875,47.36328125,35.64453125
1530859468.4730313,16.6015625,23.92578125,26.3671875,34.1796875,67.87109375
1530859468.4769375,12.20703125,27.34375,-26.3671875,-6.8359375,2.44140625
1530859468.4808438,3.90625,26.3671875,-4.8828125,0.0,-9.27734375
1530859468.48475,16.11328125,28.3203125,51.26953125,57.12890625,41.9921875
1530859468.4886563,26.3671875,30.76171875,29.296875,61.5234375,61.03515625
1530859468.4925625,17.578125,30.2734375,-8.7890625,9.27734375,5.37109375
1530859468.4964688,18.5546875,28.80859375,-46.875,-9.27734375,-38.0859375
1530859468.500375,30.2734375,27.83203125,23.92578125,45.41015625,-36.1328125
1530859468.5042813,22.4609375,29.296875,83.49609375,70.80078125,-23.92578125
1530859468.5081875,-2.9296875,30.76171875,-8.7890625,11.71875,-33.203125
1530859468.5120938,-16.11328125,28.80859375,-28.3203125,-34.66796875,-62.5
1530859468.514125,-13.671875,26.3671875,34.66796875,10.7421875,-42.48046875
1530859468.5180314,-10.25390625,28.80859375,72.265625,45.8984375,39.55078125
1530859468.5219376,-14.16015625,27.34375,-10.25390625,6.8359375,-0.9765625
1530859468.5258439,-20.5078125,24.90234375,-40.0390625,-30.2734375,-23.92578125
1530859468.52975,-11.71875,27.34375,9.765625,0.9765625,-17.08984375
1530859468.5336564,8.30078125,28.3203125,28.3203125,57.6171875,5.859375
1530859468.5375626,8.7890625,27.83203125,-7.32421875,38.57421875,49.31640625
1530859468.5414689,-8.7890625,25.87890625,-37.109375,-23.4375,0.48828125
1530859468.545375,-4.39453125,22.4609375,55.6640625,-6.8359375,-4.39453125
1530859468.5492814,10.25390625,22.94921875,81.0546875,59.5703125,23.92578125
1530859468.5531876,10.7421875,23.92578125,30.76171875,51.26953125,11.71875
1530859468.5570939,-2.9296875,22.94921875,4.39453125,2.44140625,-19.04296875
1530859468.559125,-8.7890625,23.92578125,-4.8828125,-14.16015625,-31.73828125
1530859468.5630312,0.0,23.92578125,42.96875,36.1328125,-12.6953125
1530859468.5669374,6.8359375,20.01953125,72.75390625,55.6640625,-25.87890625
1530859468.5708437,-1.46484375,18.5546875,38.0859375,16.6015625,-10.7421875
1530859468.57475,-13.18359375,18.5546875,5.37109375,-17.578125,-12.6953125
1530859468.5786562,-0.48828125,19.04296875,28.3203125,21.97265625,-29.296875
1530859468.5825624,15.625,20.01953125,11.23046875,64.453125,-25.390625
1530859468.5864687,14.16015625,22.94921875,12.20703125,28.3203125,0.48828125
1530859468.590375,-1.46484375,23.92578125,42.48046875,-11.23046875,22.94921875
1530859468.5942812,-4.8828125,22.4609375,23.92578125,11.23046875,-11.71875
1530859468.5981874,8.30078125,21.97265625,56.640625,56.640625,4.8828125
1530859468.6020937,9.27734375,24.90234375,62.5,42.96875,20.99609375
1530859468.604125,-2.9296875,21.97265625,7.8125,0.48828125,7.8125
1530859468.6080313,-8.7890625,19.04296875,-22.4609375,-4.8828125,-15.625
1530859468.6119375,2.9296875,20.99609375,28.80859375,46.38671875,3.41796875
1530859468.6158438,12.6953125,23.4375,49.8046875,59.5703125,16.6015625
1530859468.61975,6.8359375,22.94921875,21.97265625,20.99609375,62.01171875
1530859468.6236563,3.90625,21.97265625,-59.5703125,-11.23046875,-1.46484375
1530859468.6275625,16.11328125,23.92578125,-20.5078125,26.3671875,-81.54296875
1530859468.6314688,26.85546875,22.94921875,100.5859375,65.91796875,-32.2265625
1530859468.635375,16.11328125,23.4375,46.38671875,34.1796875,-36.1328125
1530859468.6392813,-1.46484375,22.94921875,-27.34375,-10.7421875,-45.41015625
1530859468.6431875,-0.9765625,21.484375,28.80859375,20.5078125,2.9296875
1530859468.6470938,13.671875,22.94921875,83.49609375,62.98828125,26.3671875
1530859468.664125,20.5078125,26.3671875,25.87890625,38.57421875,12.20703125
1530859468.6680312,7.8125,30.2734375,-20.01953125,-1.953125,-3.41796875
1530859468.6719375,5.37109375,25.87890625,16.11328125,12.20703125,-7.8125
1530859468.6758437,22.94921875,24.90234375,62.01171875,58.10546875,25.87890625
1530859468.67975,18.5546875,26.85546875,25.87890625,49.31640625,9.27734375
1530859468.6836562,-7.8125,22.4609375,-29.296875,2.44140625,-27.83203125
1530859468.6875625,-11.23046875,19.53125,-17.08984375,-14.16015625,-20.5078125
1530859468.6914687,7.32421875,21.484375,63.4765625,42.96875,-1.953125
1530859468.695375,13.18359375,20.5078125,64.453125,68.359375,29.296875
1530859468.6992812,4.8828125,21.97265625,-45.41015625,15.625,-8.7890625
1530859468.7031875,-0.48828125,23.4375,-0.9765625,-20.5078125,-25.390625
1530859468.7070937,6.8359375,18.06640625,65.91796875,37.109375,-4.8828125
1530859468.709125,22.4609375,18.06640625,28.80859375,73.2421875,23.4375
1530859468.7130313,20.01953125,18.06640625,-9.27734375,34.66796875,31.73828125
1530859468.7169375,9.765625,19.04296875,-5.37109375,-4.8828125,5.859375
1530859468.7208438,18.06640625,24.90234375,33.69140625,25.390625,14.6484375
1530859468.72475,33.69140625,24.90234375,30.76171875,70.80078125,47.8515625
1530859468.7286563,25.87890625,24.4140625,-15.13671875,41.9921875,12.20703125
1530859468.7325625,1.953125,24.90234375,-17.08984375,-6.34765625,-33.69140625
1530859468.7364688,2.44140625,25.87890625,36.62109375,4.8828125,2.9296875
1530859468.740375,12.6953125,26.85546875,7.32421875,54.6875,-19.04296875
1530859468.7442813,7.8125,26.85546875,-1.46484375,44.921875,-70.80078125
1530859468.7481875,-5.37109375,25.87890625,63.4765625,2.9296875,-22.4609375
1530859468.7520938,-6.8359375,26.85546875,21.97265625,-7.8125,-17.08984375
1530859468.754125,10.7421875,28.3203125,38.57421875,39.55078125,0.48828125
1530859468.7580314,18.06640625,27.34375,56.640625,59.5703125,43.45703125
1530859468.7619376,4.8828125,28.80859375,30.76171875,19.53125,60.05859375
1530859468.7658439,-3.90625,27.83203125,-1.953125,-12.6953125,-12.20703125
1530859468.76975,8.30078125,29.78515625,23.4375,31.25,-69.3359375
1530859468.7736564,22.94921875,28.80859375,53.22265625,72.75390625,-10.25390625
1530859468.7775626,20.01953125,24.90234375,25.390625,38.57421875,20.99609375
1530859468.7814689,8.30078125,24.90234375,14.6484375,-12.6953125,0.0
1530859468.785375,1.46484375,24.90234375,-18.06640625,2.9296875,-44.921875
1530859468.7892814,15.13671875,23.92578125,52.24609375,61.03515625,-34.66796875
1530859468.7931876,20.5078125,24.90234375,104.00390625,57.12890625,-11.71875
1530859468.7970939,4.39453125,24.90234375,-5.859375,4.39453125,-41.9921875
1530859468.800125,9.27734375,19.53125,-0.9765625,0.9765625,-30.2734375
1530859468.8040311,18.5546875,20.5078125,87.890625,61.03515625,26.3671875
1530859468.8079374,10.7421875,20.99609375,68.84765625,62.5,13.18359375
1530859468.8118436,-5.859375,18.5546875,2.9296875,4.8828125,-9.27734375
1530859468.81575,-14.6484375,21.97265625,-16.6015625,-11.71875,-13.671875
1530859468.8196561,0.48828125,23.92578125,27.83203125,38.57421875,13.18359375
1530859468.8235624,17.578125,25.87890625,83.0078125,62.5,41.015625
1530859468.8274686,16.6015625,29.296875,1.46484375,24.90234375,11.23046875
1530859468.831375,-0.48828125,26.85546875,-54.19921875,-21.484375,-15.625
1530859468.8352811,-4.8828125,18.5546875,87.40234375,24.4140625,11.71875
1530859468.8391874,16.6015625,14.6484375,103.515625,73.73046875,32.71484375
1530859468.8430936,15.13671875,16.11328125,11.23046875,33.203125,-23.4375
1530859468.844125,0.0,18.5546875,-11.23046875,-14.16015625,-50.78125
1530859468.8480313,10.25390625,22.94921875,35.15625,8.7890625,-11.71875
1530859468.8519375,19.53125,24.90234375,42.96875,59.5703125,-6.8359375
1530859468.8558438,21.484375,24.4140625,20.99609375,43.45703125,-6.8359375
1530859468.85975,13.18359375,25.87890625,14.6484375,-3.41796875,20.01953125
1530859468.8636563,2.44140625,28.80859375,-2.44140625,-7.8125,-21.484375
1530859468.8675625,9.765625,28.80859375,50.78125,42.48046875,6.8359375
1530859468.8714688,13.18359375,26.85546875,9.27734375,47.36328125,41.50390625
1530859468.875375,0.0,25.390625,-19.04296875,7.32421875,7.32421875
1530859468.8792813,-9.765625,26.3671875,40.52734375,-3.41796875,-0.9765625
1530859468.8831875,0.0,27.34375,52.24609375,41.9921875,7.32421875
1530859468.8870938,9.765625,24.90234375,54.6875,63.4765625,34.1796875
1530859468.890125,0.48828125,24.4140625,31.25,23.4375,13.18359375
1530859468.8940313,-11.71875,28.3203125,9.27734375,-7.32421875,-3.90625
1530859468.8979375,-2.44140625,29.78515625,5.859375,28.3203125,-7.32421875
1530859468.9018438,17.578125,29.296875,23.92578125,66.89453125,18.5546875
1530859468.90575,18.5546875,30.76171875,21.484375,47.36328125,32.71484375
1530859468.9096563,-0.9765625,28.80859375,-20.5078125,3.41796875,2.44140625
1530859468.9135625,2.9296875,26.3671875,-31.25,6.34765625,-31.25
1530859468.9174688,14.16015625,24.90234375,54.19921875,59.5703125,9.27734375
1530859468.921375,12.6953125,25.87890625,75.68359375,63.4765625,44.921875
1530859468.9252813,9.765625,26.85546875,20.99609375,13.671875,35.15625
1530859468.9291875,14.16015625,26.85546875,-41.015625,-10.25390625,-39.55078125
1530859468.9330938,36.1328125,29.78515625,0.48828125,41.50390625,-55.17578125
1530859468.934125,41.50390625,28.3203125,97.16796875,61.03515625,16.11328125
1530859468.9380312,25.390625,26.85546875,30.76171875,7.32421875,20.99609375
1530859468.9419374,12.6953125,24.90234375,-7.8125,-26.85546875,1.953125
1530859468.9458437,18.06640625,26.85546875,43.45703125,22.4609375,-4.8828125
1530859468.94975,25.390625,27.83203125,64.94140625,65.4296875,41.9921875
1530859468.9536562,18.5546875,25.87890625,-9.27734375,29.78515625,13.18359375
1530859468.9575624,3.90625,24.90234375,-66.89453125,-18.5546875,-56.15234375
1530859468.9614687,-0.9765625,21.97265625,10.7421875,11.23046875,-54.19921875
1530859468.965375,11.23046875,18.5546875,92.28515625,70.3125,-35.64453125
1530859468.9692812,6.8359375,15.625,45.41015625,50.29296875,-4.39453125
1530859468.9731874,-13.18359375,17.08984375,13.18359375,-3.90625,11.71875
1530859468.9770937,-10.7421875,22.4609375,24.90234375,4.39453125,-8.30078125
1530859468.979125,-0.9765625,23.92578125,56.15234375,57.6171875,-17.578125
1530859468.9830313,2.9296875,23.4375,37.109375,58.10546875,28.80859375
1530859468.9869375,-1.46484375,25.87890625,4.8828125,17.08984375,64.453125
1530859468.9908438,-6.34765625,26.3671875,25.390625,-6.34765625,50.78125
1530859468.99475,12.6953125,23.92578125,60.05859375,51.7578125,41.50390625
1530859468.9986563,24.4140625,25.87890625,18.5546875,78.61328125,60.546875
1530859469.0025625,4.8828125,27.83203125,-16.6015625,24.4140625,1.953125
1530859469.0064688,-5.37109375,24.4140625,40.0390625,-5.37109375,-25.87890625
1530859469.010375,6.8359375,25.87890625,67.87109375,40.0390625,-12.6953125
1530859469.0142813,18.06640625,29.296875,62.98828125,71.77734375,4.8828125
1530859469.0181875,12.20703125,27.34375,8.30078125,41.015625,24.4140625
1530859469.0220938,-1.46484375,27.34375,6.34765625,7.8125,0.9765625
1530859469.039125,4.39453125,29.296875,46.38671875,29.78515625,-19.04296875
1530859469.0430312,19.04296875,29.78515625,60.05859375,74.70703125,20.5078125
1530859469.0469375,19.04296875,29.78515625,56.640625,57.6171875,32.71484375
1530859469.0508437,5.859375,28.80859375,19.53125,12.6953125,-20.5078125
1530859469.05475,2.9296875,25.87890625,11.71875,15.13671875,-53.22265625
1530859469.0586562,18.06640625,23.92578125,41.9921875,70.80078125,-4.39453125
1530859469.0625625,27.83203125,25.87890625,46.875,73.2421875,-8.7890625
1530859469.0664687,16.11328125,29.296875,42.96875,25.87890625,-31.73828125
1530859469.070375,11.23046875,30.2734375,11.23046875,7.8125,-33.69140625
1530859469.0742812,22.94921875,26.3671875,4.39453125,52.24609375,-53.7109375
1530859469.0781875,28.3203125,23.92578125,91.30859375,78.61328125,-10.25390625
1530859469.0820937,19.04296875,26.3671875,85.9375,41.50390625,13.18359375
1530859469.084125,2.9296875,25.390625,-4.8828125,-4.39453125,-25.390625
1530859469.0880313,1.46484375,22.4609375,-5.37109375,29.296875,-63.96484375
1530859469.0919375,10.7421875,20.5078125,56.640625,71.2890625,-16.11328125
1530859469.0958438,8.30078125,21.484375,53.7109375,44.43359375,-15.13671875
1530859469.09975,-2.44140625,23.92578125,-20.99609375,-1.46484375,-59.08203125
1530859469.1036563,0.48828125,23.4375,-17.08984375,15.13671875,-58.10546875
1530859469.1075625,16.11328125,20.01953125,53.7109375,65.91796875,-35.64453125
1530859469.1114688,16.6015625,22.4609375,70.3125,53.22265625,-22.94921875
1530859469.115375,6.34765625,26.3671875,-27.34375,2.44140625,-60.546875
1530859469.1192813,4.8828125,27.34375,-23.92578125,-3.90625,-50.29296875
1530859469.1231875,17.08984375,28.3203125,106.4453125,59.08203125,12.6953125
1530859469.1270938,26.85546875,31.73828125,71.77734375,71.77734375,33.69140625
1530859469.130125,12.20703125,29.78515625,7.8125,26.3671875,11.23046875
1530859469.1340313,3.90625,29.78515625,0.0,4.8828125,-3.41796875
1530859469.1379375,15.625,29.296875,26.85546875,50.29296875,30.76171875
1530859469.1418438,23.4375,26.85546875,51.7578125,70.80078125,63.96484375
1530859469.14575,13.671875,27.83203125,8.30078125,28.3203125,60.546875
1530859469.1496563,-6.34765625,25.390625,-30.76171875,-4.39453125,22.94921875
1530859469.1535625,4.39453125,27.34375,36.1328125,35.15625,21.484375
1530859469.1574688,26.85546875,30.2734375,72.265625,81.54296875,0.9765625
1530859469.161375,23.4375,28.80859375,-24.90234375,34.66796875,-26.3671875
1530859469.1652813,3.41796875,28.3203125,-14.6484375,-18.5546875,-20.01953125
1530859469.1691875,-6.34765625,27.83203125,66.89453125,16.11328125,-18.06640625
1530859469.1730938,2.44140625,27.34375,43.9453125,63.4765625,-20.01953125
1530859469.175125,15.13671875,31.73828125,18.5546875,46.38671875,-11.23046875
1530859469.1790311,10.25390625,33.203125,11.71875,0.48828125,-32.71484375
1530859469.1829374,1.953125,30.2734375,20.99609375,-3.90625,-41.015625
1530859469.1868436,15.13671875,29.296875,36.1328125,47.8515625,4.39453125
1530859469.19075,29.78515625,27.34375,41.015625,56.15234375,42.48046875
1530859469.1946561,11.23046875,24.90234375,0.0,8.7890625,57.12890625
1530859469.1985624,3.90625,27.34375,-2.44140625,-23.4375,46.875
1530859469.2024686,20.01953125,27.83203125,17.08984375,30.76171875,13.18359375
1530859469.206375,19.53125,25.390625,31.25,62.01171875,7.32421875
1530859469.2102811,-2.44140625,21.97265625,84.47265625,20.5078125,7.8125
1530859469.2141874,-13.671875,21.97265625,16.11328125,-12.20703125,-24.90234375
1530859469.2180936,-0.9765625,24.90234375,-0.9765625,16.11328125,-22.4609375
1530859469.219125,13.18359375,26.85546875,52.24609375,67.3828125,-2.9296875
1530859469.2230313,11.71875,29.296875,45.41015625,45.8984375,20.01953125
1530859469.2269375,-0.9765625,29.296875,-8.30078125,-1.953125,15.13671875
1530859469.2308438,0.9765625,25.390625,-4.8828125,-2.44140625,-16.11328125
1530859469.23475,11.71875,21.97265625,59.5703125,45.41015625,23.92578125
1530859469.2386563,11.71875,26.85546875,32.2265625,56.640625,54.6875
1530859469.2425625,-2.44140625,36.62109375,-2.9296875,6.8359375,36.62109375
1530859469.2464688,0.0,40.0390625,-41.9921875,-20.01953125,1.953125
1530859469.250375,16.11328125,33.69140625,50.78125,37.109375,1.46484375
1530859469.2542813,18.5546875,26.3671875,132.32421875,71.2890625,15.625
1530859469.2581875,6.34765625,25.87890625,16.11328125,26.85546875,21.97265625
1530859469.2620938,0.0,28.80859375,-3.90625,-10.25390625,7.8125
1530859469.264125,18.5546875,29.78515625,77.63671875,37.109375,24.4140625
1530859469.2680314,33.203125,30.76171875,93.75,77.1484375,68.359375
1530859469.2719376,21.97265625,31.25,4.8828125,33.203125,57.12890625
1530859469.2758439,8.7890625,29.78515625,-30.2734375,-13.18359375,17.08984375
1530859469.27975,4.8828125,27.34375,24.4140625,19.04296875,5.859375
1530859469.2836564,5.859375,26.3671875,60.05859375,69.3359375,9.765625
1530859469.2875626,12.6953125,30.2734375,14.6484375,53.7109375,5.37109375
1530859469.2914689,3.41796875,29.296875,-15.13671875,-7.8125,-11.23046875
1530859469.295375,-3.90625,23.92578125,68.84765625,-2.44140625,-38.57421875
1530859469.2992814,13.18359375,26.3671875,103.02734375,76.171875,2.9296875
1530859469.3031876,13.18359375,24.90234375,50.29296875,71.77734375,34.66796875
1530859469.3070939,2.44140625,26.85546875,26.85546875,23.92578125,6.34765625
1530859469.324125,4.39453125,31.73828125,2.9296875,11.23046875,-16.6015625
1530859469.3280313,23.92578125,31.25,17.08984375,56.640625,-1.953125
1530859469.3319376,37.59765625,29.78515625,65.4296875,81.0546875,20.01953125
1530859469.3358438,17.08984375,24.4140625,47.36328125,37.59765625,31.25
1530859469.33975,-1.953125,23.92578125,9.27734375,0.9765625,26.3671875
1530859469.3436563,10.25390625,23.4375,4.8828125,38.57421875,6.8359375
1530859469.3475626,23.92578125,20.01953125,5.37109375,74.21875,-5.37109375
1530859469.3514688,17.08984375,21.484375,19.53125,43.45703125,-11.23046875
1530859469.355375,4.39453125,22.94921875,46.875,8.7890625,-9.27734375
1530859469.3592813,4.39453125,23.92578125,25.87890625,26.3671875,-18.06640625
1530859469.3631876,19.53125,23.92578125,45.8984375,66.89453125,-3.90625
1530859469.3670938,20.5078125,24.90234375,51.7578125,51.26953125,-10.7421875
1530859469.354125,3.90625,23.4375,25.390625,5.859375,-26.85546875
1530859469.3580313,0.9765625,23.92578125,-3.41796875,2.44140625,-18.5546875
1530859469.3619375,13.18359375,24.4140625,38.0859375,52.734375,13.18359375
1530859469.3658438,16.11328125,26.85546875,48.33984375,57.6171875,21.97265625
1530859469.36975,0.48828125,27.34375,5.37109375,17.08984375,-11.23046875
1530859469.3736563,-7.8125,22.4609375,-26.85546875,-5.37109375,-18.5546875
1530859469.3775625,6.34765625,24.90234375,20.01953125,40.52734375,17.578125
1530859469.3814688,21.484375,30.76171875,70.3125,75.1953125,29.296875
1530859469.385375,10.25390625,29.78515625,29.296875,30.76171875,-12.6953125
1530859469.3892813,1.46484375,28.80859375,-49.8046875,-24.4140625,-18.5546875
1530859469.3931875,13.671875,31.25,-19.53125,8.30078125,-2.9296875
1530859469.3970938,24.90234375,30.2734375,98.6328125,71.77734375,55.17578125
1530859469.414125,19.53125,29.296875,31.73828125,48.33984375,33.69140625
1530859469.4180312,7.8125,28.80859375,-29.296875,-8.7890625,-22.4609375
1530859469.4219375,8.7890625,25.87890625,14.16015625,8.7890625,-7.8125
1530859469.4258437,24.4140625,25.390625,62.01171875,70.3125,16.6015625
1530859469.42975,26.3671875,27.34375,27.83203125,57.6171875,10.7421875
1530859469.4336562,-6.8359375,24.4140625,-7.8125,4.39453125,13.18359375
1530859469.4375625,-22.4609375,17.08984375,-16.11328125,-11.71875,-7.32421875
1530859469.4414687,-5.37109375,16.11328125,50.29296875,43.9453125,5.859375
1530859469.445375,9.765625,20.5078125,72.75390625,74.70703125,6.8359375
1530859469.4492812,9.27734375,23.92578125,-32.71484375,24.4140625,-19.04296875
1530859469.4531875,3.41796875,25.390625,-5.37109375,-14.6484375,6.34765625
1530859469.4570937,17.08984375,22.94921875,69.82421875,41.015625,32.2265625
1530859469.459125,29.78515625,22.4609375,27.34375,77.63671875,18.5546875
1530859469.4630313,10.7421875,22.4609375,-7.32421875,36.62109375,5.859375
1530859469.4669375,-2.44140625,22.94921875,2.9296875,-3.90625,7.8125
1530859469.4708438,13.18359375,24.90234375,32.2265625,29.296875,-14.16015625
1530859469.47475,27.34375,26.3671875,32.71484375,75.68359375,-7.32421875
1530859469.4786563,21.484375,27.83203125,-0.9765625,54.6875,25.87890625
1530859469.4825625,4.8828125,26.3671875,7.32421875,1.953125,23.92578125
1530859469.4864688,1.46484375,22.94921875,49.8046875,7.8125,-1.953125
1530859469.490375,13.18359375,25.87890625,14.6484375,58.10546875,-22.94921875
1530859469.4942813,16.11328125,31.25,-9.27734375,49.8046875,-5.37109375
1530859469.4981875,0.48828125,28.3203125,42.48046875,7.8125,-3.90625
1530859469.5020938,0.0,28.80859375,29.78515625,0.0,-50.29296875
1530859469.504125,16.11328125,30.76171875,43.45703125,48.33984375,-22.4609375
1530859469.5080314,21.484375,28.3203125,57.6171875,63.96484375,3.41796875
1530859469.5119376,13.18359375,28.3203125,14.6484375,22.94921875,-31.25
1530859469.5158439,5.37109375,27.83203125,0.0,-5.37109375,-30.2734375
1530859469.51975,9.765625,26.3671875,35.64453125,36.1328125,-19.04296875
1530859469.5236564,16.11328125,24.90234375,41.015625,68.84765625,12.6953125
1530859469.5275626,5.859375,22.94921875,30.2734375,34.1796875,49.8046875
1530859469.5314689,-8.30078125,24.4140625,20.99609375,-6.34765625,7.8125
1530859469.535375,-4.39453125,23.4375,-2.44140625,14.16015625,-12.6953125
1530859469.5392814,11.23046875,20.01953125,58.10546875,62.01171875,15.625
1530859469.5431876,16.6015625,23.92578125,89.35546875,57.6171875,13.671875
1530859469.5470939,6.8359375,25.390625,-0.48828125,4.8828125,-20.5078125
1530859469.550125,6.34765625,24.4140625,-10.7421875,-1.46484375,-26.3671875
1530859469.5540311,21.484375,26.3671875,65.91796875,54.6875,0.9765625
1530859469.5579374,20.99609375,23.92578125,59.5703125,60.546875,-1.46484375
1530859469.5618436,10.25390625,22.4609375,-9.765625,15.13671875,13.671875
1530859469.56575,5.37109375,23.4375,-12.20703125,-7.8125,19.53125
1530859469.5696561,15.13671875,23.92578125,32.2265625,40.52734375,-11.71875
1530859469.5735624,26.3671875,29.296875,65.4296875,68.84765625,-3.90625
1530859469.5774686,14.6484375,31.73828125,7.32421875,29.78515625,-8.30078125
1530859469.581375,0.0,28.80859375,-27.83203125,-14.16015625,-59.08203125
1530859469.5852811,9.27734375,28.80859375,87.40234375,27.34375,-52.734375
1530859469.5891874,20.99609375,26.85546875,102.5390625,72.265625,-14.6484375
1530859469.5930936,13.671875,24.90234375,44.921875,45.8984375,8.30078125
1530859469.595125,0.48828125,27.83203125,-4.39453125,2.44140625,-23.92578125
1530859469.5990312,3.90625,26.85546875,36.62109375,17.578125,-42.48046875
1530859469.6029375,21.97265625,25.390625,48.828125,64.453125,-12.6953125
1530859469.6068437,23.4375,25.87890625,28.3203125,48.33984375,-9.765625
1530859469.61075,4.8828125,20.99609375,25.390625,1.953125,-17.08984375
1530859469.6146562,1.953125,20.01953125,-8.30078125,-3.41796875,-56.15234375
1530859469.6185625,17.578125,27.34375,63.96484375,57.12890625,-20.99609375
1530859469.6224687,24.90234375,34.1796875,26.3671875,64.94140625,-10.7421875
1530859469.626375,12.6953125,29.296875,5.37109375,3.90625,-42.48046875
1530859469.6302812,7.32421875,26.85546875,53.7109375,-15.625,-31.25
1530859469.6341875,19.53125,28.3203125,45.41015625,36.1328125,-45.8984375
1530859469.6380937,17.578125,25.390625,62.01171875,64.453125,-21.97265625
1530859469.639125,6.8359375,25.87890625,40.0390625,29.296875,-9.765625
1530859469.6430314,0.48828125,26.85546875,22.4609375,-7.8125,6.34765625
1530859469.6469376,3.90625,25.87890625,24.90234375,21.484375,0.9765625
1530859469.6508439,18.5546875,29.78515625,56.15234375,62.01171875,20.99609375
1530859469.65475,16.11328125,28.3203125,53.22265625,41.9921875,43.45703125
1530859469.6586564,-1.46484375,22.4609375,-18.06640625,-6.8359375,-37.59765625
1530859469.6625626,-0.9765625,23.92578125,-12.20703125,0.0,-42.48046875
1530859469.6664689,18.5546875,25.87890625,35.64453125,48.828125,-9.765625
1530859469.670375,16.6015625,24.90234375,96.6796875,50.29296875,1.953125
1530859469.6742814,-3.90625,24.90234375,48.828125,6.34765625,14.6484375
1530859469.6781876,-2.44140625,27.34375,0.0,-15.625,-4.8828125
1530859469.6820939,8.7890625,24.90234375,46.38671875,33.203125,-11.71875
1530859469.685125,7.32421875,25.390625,75.1953125,58.10546875,24.90234375
1530859469.6890314,-2.44140625,26.85546875,22.4609375,19.53125,2.44140625
1530859469.6929376,-6.8359375,26.85546875,11.71875,-11.23046875,-8.30078125
1530859469.6968439,10.7421875,29.78515625,50.78125,32.2265625,6.34765625
1530859469.70075,23.4375,29.78515625,45.41015625,65.4296875,0.0
1530859469.7046564,7.32421875,29.78515625,22.4609375,35.64453125,20.01953125
1530859469.7085626,-7.32421875,32.2265625,-49.31640625,-6.8359375,-8.30078125
1530859469.7124689,2.44140625,28.80859375,9.765625,20.99609375,-20.99609375
1530859469.716375,18.5546875,26.85546875,97.16796875,73.2421875,24.90234375
1530859469.7202814,17.578125,26.85546875,30.76171875,51.7578125,35.64453125
1530859469.7241876,5.37109375,27.34375,1.953125,-0.48828125,16.6015625
1530859469.7280939,9.27734375,29.296875,40.52734375,2.9296875,18.06640625
1530859469.730125,19.53125,27.34375,62.98828125,61.5234375,27.34375
1530859469.7340312,21.484375,24.4140625,8.30078125,58.59375,10.7421875
1530859469.7379375,1.953125,23.4375,-12.20703125,8.30078125,44.921875
1530859469.7418437,-11.23046875,22.94921875,5.37109375,-12.6953125,26.3671875
1530859469.74575,4.8828125,28.3203125,36.1328125,44.921875,6.8359375
1530859469.7496562,14.16015625,30.76171875,10.7421875,73.2421875,37.109375
1530859469.7535625,8.7890625,29.296875,-32.71484375,19.53125,-1.46484375
1530859469.7574687,6.34765625,28.80859375,28.3203125,-11.23046875,-22.94921875
1530859469.761375,10.25390625,26.3671875,62.01171875,33.69140625,-0.48828125
1530859469.7652812,16.11328125,24.4140625,49.31640625,63.96484375,13.18359375
1530859469.7691875,11.23046875,22.94921875,30.2734375,28.80859375,2.44140625
1530859469.7730937,-6.34765625,22.94921875,-2.9296875,-11.71875,-5.37109375
1530859469.790125,-6.34765625,25.390625,10.25390625,14.16015625,-12.20703125
1530859469.7940311,10.25390625,24.4140625,65.4296875,57.12890625,-7.32421875
1530859469.7979374,12.20703125,24.4140625,51.7578125,38.0859375,22.94921875
1530859469.8018436,0.9765625,25.390625,26.3671875,-4.39453125,28.3203125
1530859469.80575,-3.90625,25.87890625,16.11328125,-3.90625,12.20703125
1530859469.8096561,7.32421875,27.34375,24.4140625,50.78125,0.0
1530859469.8135624,15.13671875,27.83203125,51.26953125,58.59375,-2.44140625
1530859469.8174686,0.48828125,26.85546875,43.9453125,12.6953125,-3.90625
1530859469.821375,-2.9296875,28.80859375,8.30078125,-8.7890625,-6.34765625
1530859469.8252811,11.23046875,31.25,-4.8828125,30.76171875,3.41796875
1530859469.8291874,21.484375,34.1796875,58.10546875,63.4765625,-7.8125
1530859469.8330936,13.671875,36.62109375,58.59375,34.66796875,-1.953125
1530859469.834125,2.9296875,33.69140625,-12.6953125,-11.71875,0.48828125
1530859469.8380313,12.6953125,31.25,-1.46484375,16.11328125,-35.15625
1530859469.8419375,28.80859375,31.25,63.4765625,59.5703125,24.90234375
1530859469.8458438,29.296875,30.76171875,60.546875,36.62109375,69.3359375
1530859469.84975,7.32421875,31.25,-22.94921875,-8.7890625,14.16015625
1530859469.8536563,-2.44140625,29.78515625,-28.3203125,-0.48828125,12.20703125
1530859469.8575625,14.16015625,28.3203125,50.78125,42.96875,37.59765625
1530859469.8614688,18.5546875,28.3203125,75.68359375,39.55078125,49.31640625
1530859469.865375,-5.859375,25.87890625,-35.15625,-8.30078125,-9.27734375
1530859469.8692813,-8.7890625,25.390625,-40.52734375,-20.01953125,-63.96484375
1530859469.8731875,13.18359375,25.87890625,92.28515625,47.8515625,-19.53125
1530859469.8770938,16.11328125,25.390625,63.96484375,60.05859375,11.23046875
1530859469.879125,10.25390625,30.76171875,4.8828125,10.7421875,-23.92578125
1530859469.8830314,-4.39453125,34.1796875,2.9296875,-3.41796875,-35.64453125
1530859469.8869376,-9.765625,30.2734375,45.8984375,44.921875,-0.9765625
1530859469.8908439,2.44140625,27.83203125,45.41015625,63.96484375,3.90625
1530859469.89475,0.9765625,28.3203125,2.44140625,22.4609375,20.01953125
1530859469.8986564,-3.90625,28.80859375,-21.97265625,-12.20703125,-1.46484375
1530859469.9025626,0.9765625,29.78515625,40.0390625,26.3671875,-14.16015625
1530859469.9064689,13.671875,28.80859375,100.5859375,68.84765625,30.76171875
1530859469.910375,17.08984375,29.296875,-7.8125,33.203125,22.4609375
1530859469.9142814,9.27734375,34.1796875,-26.85546875,-8.30078125,-10.7421875
1530859469.9181876,8.7890625,31.25,59.5703125,17.578125,10.7421875
1530859469.9220939,17.578125,26.3671875,62.01171875,64.94140625,30.76171875
1530859469.924125,21.97265625,27.34375,28.80859375,56.15234375,20.99609375
1530859469.9280312,6.34765625,26.85546875,17.08984375,11.71875,36.62109375
1530859469.9319375,0.48828125,25.390625,6.8359375,0.48828125,24.90234375
1530859469.9358437,13.18359375,21.97265625,15.13671875,49.31640625,-23.4375
1530859469.93975,14.6484375,20.99609375,37.109375,62.5,-6.8359375
1530859469.9436562,11.71875,22.94921875,6.8359375,28.80859375,3.90625
1530859469.9475625,4.8828125,24.90234375,13.671875,8.7890625,-6.34765625
1530859469.9514687,-0.9765625,30.76171875,14.16015625,33.69140625,17.08984375
1530859469.955375,8.30078125,32.2265625,2.44140625,46.38671875,24.4140625
1530859469.9592812,3.41796875,25.87890625,66.89453125,22.4609375,20.01953125
1530859469.9631875,-14.16015625,25.87890625,28.3203125,-8.7890625,-16.11328125
1530859469.9670937,-11.71875,27.34375,10.25390625,9.27734375,-39.0625
1530859469.970125,-1.953125,25.390625,66.40625,51.26953125,2.9296875
1530859469.9740312,-6.8359375,25.87890625,46.38671875,37.59765625,-18.5546875
1530859469.9779375,-15.13671875,25.87890625,19.53125,-2.9296875,-24.4140625
1530859469.9818437,-10.7421875,26.3671875,30.76171875,-1.46484375,-8.30078125
1530859469.98575,4.39453125,25.87890625,57.12890625,52.24609375,-7.32421875
1530859469.9896562,11.23046875,22.4609375,45.8984375,50.78125,14.16015625
1530859469.9935625,-0.48828125,18.5546875,15.13671875,0.48828125,24.4140625
1530859469.9974687,-2.9296875,20.01953125,-25.87890625,-14.16015625,-19.04296875
1530859470.001375,13.18359375,25.87890625,41.9921875,32.2265625,-48.33984375
1530859470.0052812,18.06640625,26.85546875,125.48828125,62.98828125,-12.6953125
1530859470.0091875,7.32421875,27.83203125,19.53125,21.97265625,26.3671875
1530859470.0130937,-1.46484375,29.78515625,-10.7421875,-13.18359375,24.90234375
1530859470.014125,8.7890625,26.85546875,59.5703125,27.83203125,17.578125
1530859470.0180314,21.484375,25.87890625,71.77734375,69.3359375,20.5078125
1530859470.0219376,12.6953125,25.390625,12.6953125,39.55078125,13.671875
1530859470.0258439,0.9765625,25.390625,-20.01953125,-1.46484375,-14.16015625
1530859470.02975,3.90625,25.390625,26.85546875,24.4140625,-21.97265625
1530859470.0336564,20.01953125,25.390625,41.015625,68.359375,-3.41796875
1530859470.0375626,26.85546875,31.73828125,10.7421875,58.10546875,43.9453125
1530859470.0414689,14.16015625,29.296875,-31.73828125,4.39453125,22.4609375
1530859470.045375,16.11328125,23.4375,52.24609375,5.859375,-26.85546875
1530859470.0492814,32.2265625,27.34375,82.03125,72.75390625,-19.04296875
1530859470.0531876,29.78515625,27.34375,28.80859375,80.078125,7.8125
1530859470.0570939,16.6015625,24.90234375,15.625,29.78515625,14.16015625
1530859470.059125,15.625,27.83203125,16.11328125,7.8125,-21.97265625
1530859470.0630312,26.85546875,29.296875,32.71484375,55.6640625,-18.06640625
1530859470.0669374,31.25,26.85546875,46.38671875,70.80078125,28.80859375
1530859470.0708437,11.23046875,23.4375,28.3203125,37.109375,17.08984375
1530859470.07475,-2.9296875,22.4609375,0.48828125,0.48828125,-26.85546875
1530859470.0786562,10.7421875,20.99609375,21.97265625,21.97265625,6.8359375
1530859470.0825624,27.83203125,20.99609375,21.484375,57.6171875,10.7421875
1530859470.0864687,20.99609375,20.99609375,41.50390625,34.66796875,15.625
1530859470.090375,11.71875,25.390625,65.91796875,4.39453125,24.4140625
1530859470.0942812,15.13671875,24.90234375,38.0859375,18.06640625,-28.80859375
1530859470.0981874,20.5078125,24.90234375,53.22265625,60.05859375,-38.0859375
1530859470.1020937,18.06640625,29.296875,71.2890625,53.22265625,20.99609375
1530859470.105125,3.90625,31.25,22.94921875,8.30078125,8.7890625
1530859470.1090312,0.48828125,34.1796875,-13.18359375,1.46484375,-11.23046875
1530859470.1129375,17.578125,30.76171875,34.66796875,52.24609375,11.23046875
1530859470.1168437,27.83203125,30.2734375,65.4296875,54.6875,15.625
1530859470.12075,14.16015625,32.71484375,6.8359375,8.30078125,14.16015625
1530859470.1246562,7.8125,30.76171875,-31.25,-9.765625,11.23046875
1530859470.1285625,25.390625,28.80859375,0.0,32.2265625,-44.43359375
1530859470.1324687,34.1796875,31.73828125,98.6328125,67.87109375,-43.45703125
1530859470.136375,26.3671875,31.73828125,66.89453125,43.9453125,6.34765625
1530859470.1402812,12.6953125,25.87890625,-4.39453125,2.9296875,-8.30078125
1530859470.1441875,19.53125,26.85546875,42.96875,35.15625,11.71875
1530859470.1480937,37.109375,27.83203125,62.98828125,72.75390625,9.27734375
1530859470.165125,29.78515625,25.87890625,28.80859375,45.41015625,30.76171875
1530859470.1690311,15.625,26.3671875,-12.20703125,5.37109375,2.9296875
1530859470.1729374,15.625,25.87890625,16.11328125,20.99609375,-44.43359375
1530859470.1768436,31.25,27.34375,63.4765625,77.63671875,-22.4609375
1530859470.18075,31.73828125,28.80859375,27.83203125,68.84765625,-52.24609375
1530859470.1846561,14.16015625,29.296875,-20.99609375,12.20703125,-46.38671875
1530859470.1885624,10.25390625,29.78515625,-4.39453125,-1.953125,-42.48046875
1530859470.1924686,24.4140625,27.83203125,60.546875,55.17578125,-26.3671875
1530859470.196375,32.71484375,26.3671875,69.82421875,70.3125,1.46484375
1530859470.2002811,17.08984375,22.4609375,-25.390625,15.625,-31.73828125
1530859470.2041874,5.859375,21.484375,-3.90625,-16.6015625,-39.0625
1530859470.2080936,11.71875,22.4609375,62.98828125,38.0859375,-36.62109375
1530859470.209125,23.4375,25.390625,33.203125,70.80078125,-10.25390625
1530859470.2130313,20.99609375,28.3203125,0.0,34.1796875,21.484375
1530859470.2169375,10.7421875,29.296875,-0.48828125,3.90625,2.9296875
1530859470.2208438,22.4609375,29.296875,30.76171875,33.203125,-19.04296875
1530859470.22475,37.59765625,27.34375,32.71484375,73.2421875,-3.41796875
1530859470.2286563,26.3671875,25.390625,-13.671875,47.8515625,16.6015625
1530859470.2325625,12.20703125,26.85546875,0.0,0.0,0.48828125
1530859470.2364688,12.6953125,27.83203125,68.359375,12.6953125,1.46484375
1530859470.240375,19.04296875,28.3203125,32.2265625,65.91796875,-15.625
1530859470.2442813,22.4609375,27.34375,-19.04296875,49.8046875,-49.8046875
1530859470.2481875,11.23046875,25.390625,56.15234375,8.30078125,-31.25
1530859470.2520938,12.20703125,27.34375,53.22265625,4.39453125,-30.2734375
1530859470.254125,22.94921875,25.87890625,41.015625,49.8046875,-76.66015625
1530859470.2580314,27.34375,26.3671875,66.89453125,68.359375,-88.37890625
1530859470.2619376,20.5078125,25.390625,37.109375,27.83203125,-65.4296875
1530859470.2658439,2.44140625,20.99609375,2.9296875,-8.30078125,-64.94140625
1530859470.26975,12.20703125,23.92578125,20.99609375,27.83203125,-49.31640625
1530859470.2736564,30.76171875,24.90234375,38.0859375,63.4765625,-19.04296875
1530859470.2775626,24.4140625,24.4140625,20.01953125,31.25,-40.0390625
1530859470.2814689,13.18359375,26.3671875,16.11328125,-8.30078125,-57.12890625
1530859470.285375,20.01953125,28.80859375,-18.5546875,10.25390625,-52.734375
1530859470.2892814,35.64453125,29.78515625,38.0859375,57.6171875,-21.484375
1530859470.2931876,36.1328125,34.66796875,100.09765625,54.6875,4.8828125
1530859470.2970939,16.11328125,33.69140625,14.6484375,15.625,-7.32421875
1530859470.299125,8.7890625,25.390625,-25.87890625,14.16015625,-59.08203125
1530859470.3030312,21.97265625,25.87890625,51.26953125,62.98828125,-55.17578125
1530859470.3069375,26.3671875,28.80859375,87.40234375,72.75390625,-12.6953125
1530859470.3108437,8.7890625,26.85546875,11.23046875,23.92578125,-12.20703125
1530859470.31475,-4.8828125,26.3671875,-16.11328125,-2.44140625,-29.78515625
1530859470.3186562,11.23046875,28.3203125,32.2265625,44.921875,-23.4375
1530859470.3225625,20.99609375,26.3671875,48.33984375,69.3359375,-13.671875
1530859470.3264687,11.23046875,25.87890625,-3.41796875,28.80859375,-18.5546875
1530859470.330375,6.34765625,29.296875,-30.76171875,-11.71875,-53.7109375
1530859470.3342812,8.7890625,27.83203125,75.68359375,20.5078125,-18.06640625
1530859470.3381875,19.53125,28.3203125,86.9140625,61.5234375,10.7421875
1530859470.3420937,17.578125,29.296875,31.73828125,33.69140625,-12.20703125
1530859470.344125,-0.9765625,27.34375,10.25390625,-12.6953125,-9.765625
1530859470.3480313,0.9765625,25.87890625,55.6640625,5.859375,43.45703125
1530859470.3519375,15.625,27.83203125,71.2890625,52.24609375,55.6640625
1530859470.3558438,13.18359375,28.80859375,33.203125,37.109375,46.875
1530859470.35975,2.9296875,28.80859375,12.20703125,-7.32421875,25.390625
1530859470.3636563,6.8359375,27.83203125,1.46484375,-10.7421875,-39.55078125
1530859470.3675625,13.671875,31.25,62.98828125,49.31640625,-10.25390625
1530859470.3714688,8.7890625,36.1328125,31.25,53.22265625,14.6484375
1530859470.375375,-1.953125,36.62109375,16.6015625,6.8359375,3.90625
1530859470.3792813,-9.27734375,34.1796875,70.3125,0.0,1.953125
1530859470.3831875,1.953125,31.25,63.96484375,42.96875,10.25390625
1530859470.3870938,22.94921875,33.203125,69.3359375,70.3125,19.04296875
1530859470.389125,20.99609375,34.66796875,53.7109375,31.73828125,37.59765625
1530859470.3930314,4.8828125,30.2734375,17.08984375,-7.32421875,-2.44140625
1530859470.3969376,4.39453125,26.85546875,14.6484375,29.78515625,-22.4609375
1530859470.4008439,14.6484375,29.296875,43.9453125,71.77734375,16.6015625
1530859470.40475,11.71875,31.73828125,56.15234375,52.24609375,20.99609375
1530859470.4086564,0.0,28.80859375,2.9296875,2.9296875,37.59765625
1530859470.4125626,1.953125,25.390625,-20.5078125,-0.9765625,19.04296875
1530859470.4164689,11.23046875,26.85546875,32.71484375,43.9453125,1.953125
1530859470.420375,11.71875,26.3671875,92.28515625,43.9453125,0.0
1530859470.4242814,-4.39453125,24.90234375,31.73828125,4.39453125,3.90625
1530859470.4281876,-11.23046875,23.92578125,0.9765625,-10.7421875,6.34765625
1530859470.4320939,2.9296875,20.5078125,59.08203125,38.57421875,8.30078125
1530859470.435125,12.6953125,19.53125,69.82421875,57.12890625,0.48828125
1530859470.4390314,4.8828125,23.4375,31.25,19.53125,7.32421875
1530859470.4429376,-6.34765625,23.4375,-0.9765625,-3.41796875,12.20703125
1530859470.4468439,-1.953125,20.99609375,41.50390625,40.0390625,20.5078125
1530859470.45075,17.578125,24.4140625,58.59375,72.75390625,10.7421875
1530859470.4546564,21.484375,27.34375,17.578125,39.0625,5.37109375
1530859470.4585626,2.44140625,23.92578125,-50.78125,-11.71875,-25.87890625
1530859470.4624689,0.9765625,24.4140625,13.18359375,10.25390625,-65.4296875
1530859470.466375,18.5546875,27.83203125,107.91015625,67.87109375,14.16015625
1530859470.4702814,12.6953125,25.390625,30.76171875,54.6875,35.15625
1530859470.4741876,-3.41796875,23.4375,6.8359375,7.32421875,-28.3203125
1530859470.4780939,-4.39453125,22.94921875,30.2734375,12.20703125,-61.03515625
1530859470.480125,7.32421875,22.4609375,67.3828125,69.82421875,-37.109375
1530859470.4840312,10.25390625,21.97265625,39.55078125,68.84765625,-9.765625
1530859470.4879375,-0.9765625,22.4609375,-9.27734375,18.06640625,-42.48046875
1530859470.4918437,-5.37109375,21.484375,20.5078125,0.0,-52.734375
1530859470.49575,3.41796875,22.94921875,62.98828125,45.41015625,-14.6484375
1530859470.4996562,8.30078125,25.390625,20.99609375,61.03515625,38.57421875
1530859470.5035625,2.44140625,26.3671875,-33.69140625,8.30078125,2.44140625
1530859470.5074687,0.9765625,28.3203125,38.0859375,-21.97265625,-41.9921875
1530859470.511375,10.7421875,28.80859375,88.37890625,33.203125,12.6953125
1530859470.5152812,16.11328125,23.92578125,45.8984375,65.4296875,28.3203125
1530859470.5191875,5.859375,23.92578125,35.64453125,33.69140625,34.66796875
1530859470.5230937,-5.37109375,26.3671875,7.8125,-3.90625,7.8125
1530859470.539125,-4.8828125,22.4609375,20.99609375,14.16015625,-27.83203125
1530859470.5430312,7.8125,20.5078125,76.171875,56.15234375,-23.92578125
1530859470.5469375,12.6953125,22.4609375,64.453125,49.8046875,17.08984375
1530859470.5508437,-1.46484375,22.94921875,14.16015625,7.8125,15.625
1530859470.55475,-4.39453125,24.4140625,-6.8359375,2.44140625,-4.8828125
1530859470.5586562,17.578125,24.90234375,36.62109375,64.94140625,10.7421875
1530859470.5625625,22.4609375,21.97265625,46.875,74.70703125,0.0
1530859470.5664687,11.71875,19.04296875,42.96875,39.0625,-11.71875
1530859470.570375,17.578125,18.5546875,32.2265625,28.3203125,-12.6953125
1530859470.5742812,33.203125,19.53125,7.32421875,65.91796875,-31.25
1530859470.5781875,47.8515625,18.06640625,63.96484375,97.65625,-16.6015625
1530859470.5820937,45.41015625,18.5546875,82.03125,82.03125,9.27734375
1530859470.584125,34.1796875,18.06640625,6.8359375,45.41015625,-29.78515625
1530859470.5880313,58.10546875,20.5078125,44.921875,92.7734375,-43.9453125
1530859470.5919375,76.171875,20.5078125,87.40234375,143.5546875,-31.25
1530859470.5958438,59.08203125,15.625,74.21875,117.67578125,-37.109375
1530859470.59975,47.36328125,15.625,27.83203125,77.63671875,-29.296875
1530859470.6036563,54.6875,16.6015625,14.16015625,93.26171875,-53.7109375
1530859470.6075625,76.66015625,19.04296875,102.5390625,148.92578125,9.27734375
1530859470.6114688,71.2890625,20.01953125,104.4921875,137.20703125,51.26953125
1530859470.615375,57.6171875,20.01953125,0.9765625,92.7734375,5.859375
1530859470.6192813,59.5703125,17.08984375,-5.37109375,85.9375,-17.08984375
1530859470.6231875,74.70703125,14.6484375,116.69921875,142.08984375,2.44140625
1530859470.6270938,89.84375,17.578125,98.14453125,156.73828125,-14.6484375
1530859470.629125,74.21875,21.97265625,42.48046875,109.86328125,2.44140625
1530859470.6330314,63.96484375,24.90234375,29.78515625,85.44921875,5.37109375
1530859470.6369376,78.125,21.97265625,75.68359375,139.16015625,5.37109375
1530859470.6408439,88.8671875,19.53125,91.796875,171.875,9.765625
1530859470.64475,83.0078125,22.4609375,45.41015625,128.90625,-4.8828125
1530859470.6486564,71.77734375,21.97265625,14.16015625,85.9375,-23.4375
1530859470.6525626,69.82421875,19.53125,52.24609375,113.28125,-13.671875
1530859470.6564689,73.73046875,20.5078125,94.23828125,154.78515625,30.76171875
1530859470.660375,72.75390625,22.4609375,22.4609375,135.7421875,15.625
1530859470.6642814,62.98828125,21.97265625,13.671875,91.796875,-47.8515625
1530859470.6681876,68.359375,23.92578125,104.00390625,104.00390625,-35.64453125
1530859470.6720939,75.68359375,26.85546875,103.515625,152.83203125,28.80859375
1530859470.675125,75.1953125,29.78515625,63.96484375,148.92578125,13.671875
1530859470.6790311,64.453125,28.3203125,54.19921875,100.09765625,-17.578125
1530859470.6829374,59.5703125,25.390625,42.48046875,79.58984375,-31.73828125
1530859470.6868436,71.77734375,26.3671875,60.05859375,127.9296875,-13.671875
1530859470.69075,77.1484375,25.87890625,71.2890625,144.53125,20.5078125
1530859470.6946561,63.4765625,23.92578125,22.4609375,100.5859375,0.48828125
1530859470.6985624,49.31640625,22.4609375,27.83203125,67.87109375,25.390625
1530859470.7024686,54.6875,21.97265625,40.0390625,107.421875,31.25
1530859470.706375,60.05859375,25.87890625,32.2265625,132.8125,5.859375
1530859470.7102811,54.19921875,29.296875,102.5390625,109.375,46.875
1530859470.7141874,48.828125,26.85546875,63.4765625,72.75390625,48.33984375
1530859470.7180936,55.17578125,26.3671875,30.76171875,85.44921875,-4.39453125
1530859470.719125,58.10546875,27.34375,85.44921875,125.0,32.2265625
1530859470.7230313,51.7578125,26.3671875,78.125,98.14453125,31.73828125
1530859470.7269375,36.62109375,24.4140625,31.25,46.38671875,-12.20703125
1530859470.7308438,38.57421875,24.90234375,41.50390625,50.29296875,4.39453125
1530859470.73475,67.87109375,26.3671875,83.49609375,112.3046875,24.90234375
1530859470.7386563,62.98828125,26.85546875,47.36328125,114.2578125,20.01953125
1530859470.7425625,25.390625,25.390625,50.29296875,46.38671875,8.7890625
1530859470.7464688,20.5078125,24.4140625,4.8828125,17.578125,-23.4375
1530859470.750375,31.25,26.85546875,53.22265625,68.359375,-15.625
1530859470.7542813,23.4375,24.90234375,125.48828125,100.09765625,29.78515625
1530859470.7581875,14.6484375,24.4140625,23.92578125,59.5703125,25.87890625
1530859470.7620938,13.18359375,30.2734375,3.41796875,14.6484375,-9.765625
1530859470.764125,17.08984375,32.2265625,64.94140625,46.875,-0.48828125
1530859470.7680314,23.92578125,31.25,73.2421875,83.984375,21.97265625
1530859470.7719376,24.4140625,30.2734375,13.18359375,51.7578125,38.0859375
1530859470.7758439,22.4609375,33.203125,-31.73828125,9.27734375,8.7890625
1530859470.77975,24.90234375,33.203125,25.87890625,37.59765625,-12.20703125
1530859470.7836564,38.57421875,31.73828125,78.61328125,83.0078125,29.296875
1530859470.7875626,43.45703125,31.73828125,26.3671875,57.12890625,27.83203125
1530859470.7914689,23.92578125,27.83203125,-11.23046875,11.23046875,-13.18359375
1530859470.795375,23.4375,28.80859375,73.2421875,20.99609375,-25.390625
1530859470.7992814,35.15625,28.80859375,106.93359375,75.68359375,-20.99609375
1530859470.8031876,36.1328125,26.85546875,77.63671875,85.9375,2.9296875
1530859470.8070939,22.94921875,28.80859375,51.26953125,52.24609375,25.390625
1530859470.809125,2.9296875,26.3671875,41.9921875,27.83203125,16.6015625
1530859470.8130312,12.6953125,24.90234375,39.0625,67.3828125,0.48828125
1530859470.8169374,31.25,28.80859375,38.57421875,87.890625,65.91796875
1530859470.8208437,16.11328125,30.2734375,44.43359375,53.22265625,95.21484375
1530859470.82475,-0.9765625,27.34375,14.16015625,22.4609375,33.69140625
1530859470.8286562,9.765625,24.90234375,29.78515625,59.5703125,44.921875
1530859470.8325624,23.92578125,27.83203125,9.765625,90.33203125,37.109375
1530859470.8364687,15.13671875,28.3203125,21.97265625,58.59375,27.83203125
1530859470.840375,-2.44140625,25.390625,69.3359375,28.3203125,30.76171875
1530859470.8442812,-2.9296875,23.4375,29.78515625,36.62109375,-14.6484375
1530859470.8481874,12.20703125,19.04296875,50.78125,83.49609375,22.94921875
1530859470.8520937,26.3671875,20.01953125,46.38671875,74.70703125,44.43359375
1530859470.854125,9.765625,29.78515625,15.625,22.94921875,44.43359375
1530859470.8580313,-7.8125,35.64453125,-20.5078125,6.34765625,1.953125
1530859470.8619375,12.20703125,31.73828125,5.37109375,50.78125,6.8359375
1530859470.8658438,23.4375,28.80859375,59.08203125,65.4296875,52.734375
1530859470.86975,6.34765625,29.296875,0.0,31.25,15.13671875
1530859470.8736563,-1.46484375,27.34375,-54.19921875,7.32421875,-8.30078125
1530859470.8775625,10.7421875,24.90234375,29.296875,41.50390625,11.23046875
1530859470.8814688,17.578125,22.4609375,122.0703125,78.61328125,28.80859375
1530859470.885375,16.6015625,22.94921875,74.70703125,55.6640625,32.71484375
1530859470.8892813,7.8125,23.92578125,-1.46484375,15.13671875,-40.52734375
1530859470.8931875,10.7421875,23.4375,46.875,45.8984375,-39.0625
1530859470.8970938,24.90234375,23.4375,133.30078125,88.8671875,35.64453125
1530859470.914125,21.97265625,23.4375,115.72265625,59.5703125,11.71875
1530859470.9180312,4.39453125,24.4140625,74.70703125,-5.37109375,-46.38671875
1530859470.9219375,2.44140625,24.90234375,96.19140625,2.44140625,-25.390625
1530859470.9258437,11.23046875,25.390625,128.90625,67.3828125,-6.34765625
1530859470.92975,11.71875,26.3671875,104.4921875,58.10546875,12.6953125
1530859470.9336562,7.8125,26.3671875,58.59375,7.8125,38.57421875
1530859470.9375625,1.953125,24.4140625,62.01171875,4.39453125,0.0
1530859470.9414687,11.23046875,23.4375,119.62890625,54.19921875,12.6953125
1530859470.945375,23.92578125,22.4609375,127.44140625,65.91796875,36.1328125
1530859470.9492812,11.23046875,20.01953125,46.875,27.34375,18.5546875
1530859470.9531875,-5.859375,17.578125,60.546875,5.37109375,17.578125
1530859470.9570937,7.8125,18.5546875,131.34765625,50.78125,24.90234375
1530859470.959125,28.80859375,18.06640625,98.6328125,79.1015625,10.25390625
1530859470.9630313,22.94921875,19.04296875,64.453125,50.29296875,7.32421875
1530859470.9669375,9.765625,21.97265625,54.19921875,7.8125,-34.1796875
1530859470.9708438,17.578125,22.94921875,59.08203125,30.2734375,-29.296875
1530859470.97475,27.83203125,22.4609375,70.3125,71.77734375,13.671875
1530859470.9786563,19.04296875,23.92578125,44.43359375,46.875,-2.44140625
1530859470.9825625,11.71875,28.3203125,28.3203125,7.32421875,-9.765625
1530859470.9864688,17.08984375,29.296875,83.49609375,20.01953125,-5.37109375
1530859470.990375,29.296875,26.85546875,68.359375,71.77734375,10.25390625
1530859470.9942813,33.69140625,27.34375,23.4375,64.94140625,15.13671875
1530859470.9981875,27.34375,28.80859375,64.453125,16.6015625,-4.39453125
1530859471.0020938,27.34375,29.296875,50.78125,3.41796875,-25.390625
1530859471.004125,36.62109375,28.3203125,56.640625,51.26953125,-18.06640625
1530859471.0080314,35.64453125,27.83203125,89.35546875,78.61328125,25.390625
1530859471.0119376,20.99609375,28.3203125,36.1328125,41.015625,-1.46484375
1530859471.0158439,12.20703125,24.4140625,0.9765625,0.48828125,-25.87890625
1530859471.01975,20.01953125,20.5078125,40.52734375,37.109375,8.30078125
1530859471.0236564,25.390625,23.4375,61.03515625,71.77734375,-9.27734375
1530859471.0275626,13.671875,23.4375,51.26953125,34.66796875,-7.32421875
1530859471.0314689,2.9296875,23.4375,29.296875,-8.7890625,6.34765625
1530859471.035375,7.32421875,23.92578125,-10.25390625,9.765625,-27.83203125
1530859471.0392814,20.01953125,25.87890625,60.05859375,60.05859375,-4.39453125
1530859471.0431876,22.94921875,27.34375,121.09375,63.4765625,7.32421875
1530859471.0470939,26.3671875,21.484375,37.59765625,20.99609375,-4.8828125
1530859471.050125,36.62109375,23.4375,11.71875,17.578125,-15.13671875
1530859471.0540311,46.38671875,33.69140625,76.171875,72.265625,6.34765625
1530859471.0579374,51.7578125,42.96875,91.796875,70.80078125,63.4765625
1530859471.0618436,28.3203125,47.8515625,5.37109375,-3.41796875,21.97265625
1530859471.06575,13.18359375,42.96875,-25.87890625,-29.296875,-51.7578125
1530859471.0696561,34.66796875,42.48046875,23.4375,37.109375,-17.578125
1530859471.0735624,38.0859375,46.875,71.2890625,56.640625,32.2265625
1530859471.0774686,20.01953125,49.31640625,15.13671875,9.27734375,5.859375
1530859471.081375,21.97265625,50.78125,-34.66796875,-26.85546875,-64.453125
1530859471.0852811,19.53125,45.8984375,85.44921875,10.7421875,-33.203125
1530859471.0891874,21.484375,44.921875,92.28515625,49.31640625,17.578125
1530859471.0930936,20.5078125,47.8515625,5.37109375,18.5546875,-17.08984375
1530859471.094125,3.90625,43.45703125,3.41796875,-19.53125,-21.97265625
1530859471.0980313,2.9296875,38.57421875,50.78125,0.0,-10.7421875
1530859471.1019375,11.71875,38.57421875,71.77734375,46.875,5.859375
1530859471.1058438,13.671875,40.52734375,30.76171875,34.1796875,27.83203125
1530859471.10975,10.7421875,37.59765625,9.27734375,-7.32421875,14.16015625
1530859471.1136563,6.8359375,32.71484375,13.18359375,-15.13671875,-0.48828125
1530859471.1175625,11.71875,31.73828125,62.98828125,37.109375,21.97265625
1530859471.1214688,9.765625,34.1796875,16.11328125,52.734375,10.7421875
1530859471.125375,-4.8828125,34.66796875,2.9296875,12.20703125,-9.765625
1530859471.1292813,-7.8125,34.1796875,53.22265625,-8.30078125,-7.8125
1530859471.1331875,2.9296875,32.2265625,35.64453125,27.34375,3.41796875
1530859471.1370938,12.6953125,31.73828125,44.921875,54.19921875,8.7890625
1530859471.139125,7.8125,32.71484375,30.2734375,16.11328125,36.62109375
1530859471.1430314,-5.37109375,35.15625,4.8828125,-24.4140625,20.5078125
1530859471.1469376,-2.44140625,37.59765625,3.41796875,7.8125,-32.71484375
1530859471.1508439,15.625,36.1328125,27.83203125,49.31640625,-21.484375
1530859471.15475,12.6953125,34.66796875,47.36328125,35.15625,9.765625
1530859471.1586564,0.9765625,31.73828125,0.48828125,-5.859375,-3.90625
1530859471.1625626,10.7421875,23.92578125,-14.6484375,4.39453125,-29.78515625
1530859471.1664689,25.390625,23.92578125,31.73828125,49.8046875,-32.2265625
1530859471.170375,24.90234375,30.76171875,102.5390625,50.29296875,-29.296875
1530859471.1742814,8.30078125,35.15625,40.0390625,11.23046875,-15.625
1530859471.1781876,2.9296875,34.66796875,-20.5078125,-12.20703125,-38.0859375
1530859471.1820939,19.04296875,34.66796875,52.734375,46.875,-49.8046875
1530859471.185125,22.4609375,31.25,74.21875,69.3359375,-4.39453125
1530859471.1890314,4.39453125,25.87890625,19.53125,15.625,3.90625
1530859471.1929376,5.859375,32.71484375,-9.765625,-20.5078125,-27.83203125
1530859471.1968439,23.92578125,33.69140625,43.9453125,19.53125,-15.625
1530859471.20075,20.5078125,25.87890625,66.89453125,52.734375,22.4609375
1530859471.2046564,7.32421875,23.92578125,13.671875,26.85546875,41.50390625
1530859471.2085626,1.953125,26.3671875,-51.7578125,-23.4375,-3.41796875
1530859471.2124689,10.25390625,26.85546875,18.06640625,1.953125,-4.39453125
1530859471.216375,20.5078125,30.2734375,104.00390625,64.94140625,27.34375
1530859471.2202814,13.671875,32.71484375,26.3671875,44.921875,30.2734375
1530859471.2241876,-2.44140625,29.78515625,13.18359375,-3.41796875,-14.16015625
1530859471.2280939,-6.34765625,27.83203125,42.96875,-1.46484375,-62.98828125
1530859471.230125,12.20703125,29.296875,59.08203125,47.36328125,-29.296875
1530859471.2340312,15.625,26.3671875,36.62109375,38.57421875,-11.71875
1530859471.2379375,1.953125,26.85546875,-6.34765625,-7.8125,-45.41015625
1530859471.2418437,-1.953125,29.78515625,20.5078125,-14.6484375,-56.640625
1530859471.24575,10.25390625,30.2734375,60.05859375,39.55078125,-32.71484375
1530859471.2496562,11.71875,26.3671875,13.18359375,65.4296875,19.04296875
1530859471.2535625,1.46484375,25.87890625,-28.3203125,15.13671875,27.34375
1530859471.2574687,0.9765625,31.25,21.97265625,-13.671875,-42.96875
1530859471.261375,12.20703125,30.2734375,58.10546875,40.0390625,-55.6640625
1530859471.2652812,26.85546875,28.3203125,43.45703125,71.2890625,-32.2265625
1530859471.2691875,24.90234375,28.80859375,28.80859375,34.66796875,-25.390625
1530859471.2730937,14.6484375,30.2734375,12.20703125,-10.7421875,-31.25
1530859471.289125,20.5078125,28.80859375,15.625,11.71875,-8.30078125
1530859471.2930312,30.2734375,24.90234375,67.3828125,55.6640625,47.36328125
1530859471.2969375,20.99609375,22.4609375,62.5,40.0390625,46.38671875
1530859471.3008437,10.7421875,22.4609375,20.99609375,3.41796875,3.41796875
1530859471.30475,7.32421875,23.92578125,15.13671875,0.9765625,-25.390625
1530859471.3086562,10.25390625,27.34375,36.1328125,47.8515625,-18.5546875
1530859471.3125625,17.08984375,26.3671875,50.78125,52.734375,0.9765625
1530859471.3164687,6.8359375,24.90234375,48.33984375,7.32421875,3.90625
1530859471.320375,-5.37109375,27.34375,16.6015625,-14.6484375,-7.8125
1530859471.3242812,5.37109375,29.296875,-5.859375,25.87890625,-25.87890625
1530859471.3281875,19.53125,27.34375,53.22265625,54.19921875,-38.0859375
1530859471.3320937,9.765625,24.4140625,80.078125,30.2734375,-8.30078125
1530859471.334125,0.48828125,25.87890625,3.41796875,-4.8828125,-30.2734375
1530859471.3380313,8.30078125,28.80859375,16.6015625,21.97265625,-40.0390625
1530859471.3419375,22.94921875,29.296875,64.453125,59.5703125,21.97265625
1530859471.3458438,23.92578125,29.296875,32.71484375,37.59765625,39.55078125
1530859471.34975,7.8125,28.80859375,-18.5546875,-6.34765625,-22.94921875
1530859471.3536563,3.90625,30.76171875,-18.06640625,2.9296875,-38.57421875
1530859471.3575625,12.20703125,34.1796875,54.6875,49.8046875,5.37109375
1530859471.3614688,17.578125,34.1796875,82.03125,44.921875,-13.18359375
1530859471.365375,4.8828125,32.71484375,-10.25390625,7.32421875,-58.10546875
1530859471.3692813,1.46484375,32.71484375,-28.80859375,-9.27734375,-77.1484375
1530859471.3731875,16.11328125,28.80859375,100.09765625,42.96875,-54.6875
1530859471.3770938,16.6015625,26.85546875,70.3125,64.453125,-54.6875
1530859471.379125,2.9296875,27.34375,-5.859375,14.16015625,-36.62109375
1530859471.3830314,1.46484375,29.78515625,8.30078125,-15.13671875,-30.76171875
1530859471.3869376,12.6953125,31.25,63.4765625,34.1796875,-36.1328125
1530859471.3908439,21.484375,31.25,71.2890625,62.5,14.16015625
1530859471.39475,19.04296875,29.78515625,10.7421875,21.97265625,28.3203125
1530859471.3986564,12.6953125,29.78515625,-11.71875,-16.6015625,-3.41796875
1530859471.4025626,15.625,31.73828125,36.62109375,20.99609375,5.859375
1530859471.4064689,24.4140625,29.78515625,82.03125,65.4296875,48.828125
1530859471.410375,27.83203125,32.71484375,-4.39453125,41.015625,0.48828125
1530859471.4142814,15.625,34.1796875,4.39453125,-0.48828125,-15.13671875
1530859471.4181876,8.30078125,32.2265625,96.19140625,14.16015625,37.59765625
1530859471.4220939,11.23046875,30.76171875,64.453125,57.6171875,25.390625
1530859471.425125,15.625,27.34375,46.38671875,50.78125,22.4609375
1530859471.4290311,11.71875,25.390625,30.76171875,12.20703125,19.04296875
1530859471.4329374,0.0,22.94921875,10.25390625,5.37109375,-2.9296875
1530859471.4368436,6.34765625,20.5078125,25.390625,54.6875,19.04296875
1530859471.44075,17.578125,23.92578125,25.390625,60.05859375,53.7109375
1530859471.4446561,8.30078125,22.94921875,-13.18359375,8.7890625,53.7109375
1530859471.4485624,4.8828125,23.4375,19.04296875,-18.5546875,43.45703125
1530859471.4524686,16.11328125,29.296875,26.3671875,31.25,33.69140625
1530859471.456375,23.4375,34.1796875,11.23046875,67.3828125,43.45703125
1530859471.4602811,10.7421875,32.71484375,60.546875,37.59765625,31.73828125
1530859471.4641874,-1.46484375,28.80859375,20.99609375,-3.41796875,-12.20703125
1530859471.4680936,7.32421875,26.85546875,20.5078125,13.18359375,9.27734375
1530859471.469125,11.23046875,25.390625,56.15234375,60.546875,63.4765625
1530859471.4730313,8.30078125,27.34375,46.38671875,48.828125,48.33984375
1530859471.4769375,7.8125,25.87890625,-1.46484375,0.0,-5.859375
1530859471.4808438,7.8125,24.4140625,3.90625,-0.48828125,-8.7890625
1530859471.48475,8.30078125,27.34375,69.82421875,54.19921875,22.4609375
1530859471.4886563,10.7421875,26.85546875,37.59765625,52.24609375,24.90234375
1530859471.4925625,0.0,22.4609375,7.32421875,5.37109375,34.1796875
1530859471.4964688,-1.46484375,22.94921875,-28.80859375,-9.27734375,0.0
1530859471.500375,19.04296875,25.87890625,33.69140625,43.45703125,-11.71875
1530859471.5042813,29.296875,24.4140625,123.53515625,77.63671875,58.10546875
1530859471.5081875,20.99609375,24.4140625,20.5078125,28.3203125,73.2421875
1530859471.5120938,0.9765625,22.4609375,-15.13671875,-14.16015625,29.78515625
1530859471.515125,-0.48828125,21.97265625,69.3359375,33.69140625,19.53125
1530859471.5190313,16.6015625,24.4140625,85.9375,75.68359375,41.50390625
1530859471.5229375,10.25390625,24.90234375,11.23046875,43.9453125,17.578125
1530859471.5268438,-7.32421875,25.87890625,-10.7421875,-0.48828125,2.9296875
1530859471.53075,3.90625,25.390625,45.41015625,14.16015625,-2.44140625
1530859471.5346563,20.5078125,24.4140625,57.6171875,68.84765625,38.57421875
1530859471.5385625,15.13671875,25.390625,7.32421875,50.29296875,39.0625
1530859471.5424688,11.23046875,24.4140625,-23.4375,-3.90625,-8.30078125
1530859471.546375,32.2265625,22.94921875,56.15234375,21.97265625,-5.859375
1530859471.5502813,26.85546875,23.4375,99.12109375,68.84765625,25.87890625
1530859471.5541875,-1.953125,24.90234375,66.40625,46.38671875,65.91796875
1530859471.5580938,-13.671875,26.85546875,20.5078125,0.9765625,55.6640625
1530859471.559125,-24.90234375,25.87890625,21.484375,-27.34375,15.625
1530859471.5630312,-22.4609375,24.90234375,40.0390625,0.48828125,-1.46484375
1530859471.5669374,-33.203125,20.99609375,35.15625,12.6953125,26.3671875
1530859471.5708437,-52.24609375,23.4375,27.34375,-25.390625,22.94921875
1530859471.57475,-65.91796875,21.97265625,-2.9296875,-70.80078125,-42.96875
1530859471.5786562,-70.80078125,18.06640625,25.87890625,-54.6875,-41.015625
1530859471.5825624,-67.87109375,20.01953125,16.6015625,-31.73828125,9.27734375
1530859471.5864687,-84.9609375,12.20703125,24.4140625,-68.84765625,29.78515625
1530859471.590375,-107.421875,13.18359375,73.2421875,-98.6328125,40.0390625
1530859471.5942812,-112.79296875,14.16015625,25.390625,-84.47265625,0.0
1530859471.5981874,-103.515625,11.23046875,56.15234375,-39.55078125,10.25390625
1530859471.6020937,-111.81640625,9.765625,64.453125,-58.10546875,29.296875
1530859471.605125,-129.8828125,9.765625,7.8125,-111.81640625,0.9765625
1530859471.6090312,-126.953125,14.16015625,-6.8359375,-116.2109375,1.953125
1530859471.6129375,-109.375,14.16015625,17.578125,-65.4296875,32.71484375
1530859471.6168437,-97.16796875,15.625,58.10546875,-47.36328125,71.77734375
1530859471.62075,-104.4921875,17.08984375,9.27734375,-88.37890625,33.203125
1530859471.6246562,-116.2109375,13.671875,-50.29296875,-109.375,-6.8359375
1530859471.6285625,-101.5625,14.6484375,17.578125,-59.08203125,27.83203125
1530859471.6324687,-83.49609375,13.671875,100.09765625,-30.2734375,51.7578125
1530859471.636375,-88.8671875,9.27734375,32.2265625,-62.01171875,29.296875
1530859471.6402812,-102.5390625,7.8125,-49.31640625,-103.515625,-26.85546875
1530859471.6441875,-88.8671875,9.27734375,9.27734375,-65.91796875,-17.08984375
1530859471.6480937,-59.5703125,12.6953125,68.359375,-2.9296875,38.0859375
1530859471.664125,-55.6640625,14.6484375,5.37109375,-16.11328125,40.0390625
1530859471.6680312,-68.84765625,13.18359375,-43.9453125,-59.08203125,-5.859375
1530859471.6719375,-52.24609375,14.16015625,-18.5546875,-37.109375,-31.73828125
1530859471.6758437,-22.4609375,13.18359375,20.01953125,27.83203125,0.9765625
1530859471.67975,-17.08984375,11.23046875,-19.04296875,29.296875,3.41796875
1530859471.6836562,-31.73828125,12.6953125,-76.171875,-15.625,-13.671875
1530859471.6875625,-32.71484375,13.671875,-50.78125,-20.5078125,11.23046875
1530859471.6914687,-12.20703125,14.6484375,-6.34765625,40.52734375,14.6484375
1530859471.695375,-4.8828125,13.671875,5.37109375,62.98828125,8.7890625
1530859471.6992812,-12.20703125,13.18359375,-52.734375,15.13671875,-0.48828125
1530859471.7031875,-13.18359375,14.16015625,-38.0859375,-19.04296875,-24.90234375
1530859471.7070937,2.9296875,14.16015625,41.50390625,31.25,-44.921875
1530859471.710125,16.11328125,15.13671875,17.578125,67.3828125,3.90625
1530859471.7140312,12.20703125,18.06640625,-25.390625,36.1328125,31.25
1530859471.7179375,1.953125,19.04296875,-33.203125,2.44140625,-10.25390625
1530859471.7218437,4.8828125,16.11328125,-16.6015625,33.69140625,-38.57421875
1530859471.72575,21.484375,16.6015625,-23.92578125,79.1015625,-62.5
1530859471.7296562,22.4609375,18.06640625,-53.22265625,62.5,-18.5546875
1530859471.7335625,1.46484375,17.08984375,-47.8515625,15.13671875,3.41796875
1530859471.7374687,-2.44140625,19.53125,-4.39453125,12.6953125,8.7890625
1530859471.741375,22.94921875,20.99609375,-17.578125,66.40625,34.66796875
1530859471.7452812,32.71484375,23.92578125,-36.1328125,58.59375,8.7890625
1530859471.7491875,13.18359375,26.85546875,17.08984375,12.20703125,13.671875
1530859471.7530937,5.859375,23.92578125,-5.859375,-0.48828125,0.0
1530859471.754125,15.625,23.4375,2.44140625,46.875,-10.25390625
1530859471.7580314,25.390625,25.390625,32.71484375,63.96484375,-4.39453125
1530859471.7619376,24.90234375,27.83203125,12.20703125,25.87890625,3.90625
1530859471.7658439,18.06640625,27.83203125,-18.5546875,-1.46484375,20.01953125
1530859471.76975,24.4140625,27.34375,6.8359375,41.9921875,-0.48828125
1530859471.7736564,40.0390625,28.80859375,33.203125,82.51953125,0.48828125
1530859471.7775626,30.76171875,27.83203125,24.90234375,58.59375,28.3203125
1530859471.7814689,15.13671875,25.390625,23.92578125,17.08984375,32.71484375
1530859471.785375,16.6015625,25.87890625,-2.9296875,29.78515625,36.62109375
1530859471.7892814,25.87890625,28.3203125,41.9921875,80.56640625,26.85546875
1530859471.7931876,21.97265625,27.83203125,85.9375,78.125,1.953125
1530859471.7970939,2.44140625,24.90234375,6.8359375,23.92578125,-17.08984375
1530859471.800125,3.90625,22.4609375,5.859375,13.671875,-22.4609375
1530859471.8040311,20.5078125,25.390625,55.17578125,62.98828125,-21.484375
1530859471.8079374,20.01953125,25.390625,77.63671875,69.3359375,-2.9296875
1530859471.8118436,13.18359375,24.4140625,5.859375,30.76171875,-3.41796875
1530859471.81575,14.16015625,26.3671875,-23.92578125,11.71875,-5.37109375
1530859471.8196561,20.01953125,24.90234375,51.7578125,45.41015625,12.20703125
1530859471.8235624,20.5078125,23.4375,82.03125,63.4765625,6.8359375
1530859471.8274686,1.46484375,23.4375,11.23046875,27.83203125,1.953125
1530859471.831375,-14.16015625,21.484375,-42.48046875,-16.6015625,-40.52734375
1530859471.8352811,2.9296875,27.34375,71.77734375,28.80859375,-45.8984375
1530859471.8391874,19.53125,30.76171875,102.05078125,77.63671875,20.01953125
1530859471.8430936,13.671875,28.3203125,47.8515625,42.96875,37.109375
1530859471.844125,1.46484375,29.78515625,15.625,0.0,-3.41796875
1530859471.8480313,0.9765625,28.80859375,41.50390625,20.01953125,-39.55078125
1530859471.8519375,14.16015625,28.3203125,83.0078125,69.82421875,-5.859375
1530859471.8558438,15.13671875,28.80859375,44.43359375,57.6171875,8.30078125
1530859471.85975,5.37109375,27.34375,9.765625,6.34765625,0.0
1530859471.8636563,4.39453125,26.85546875,26.3671875,4.8828125,20.01953125
1530859471.8675625,20.99609375,28.80859375,47.36328125,59.5703125,-3.41796875
1530859471.8714688,31.73828125,29.296875,19.04296875,58.10546875,-15.13671875
1530859471.875375,10.25390625,24.90234375,26.3671875,11.71875,2.9296875
1530859471.8792813,-1.46484375,21.97265625,59.5703125,-4.8828125,-21.484375
1530859471.8831875,5.37109375,23.4375,43.9453125,42.96875,-47.36328125
1530859471.8870938,10.25390625,26.85546875,54.6875,65.4296875,-40.52734375
1530859471.890125,3.41796875,24.90234375,46.875,26.3671875,-34.1796875
1530859471.8940313,-6.8359375,25.390625,15.625,-7.8125,-19.53125
1530859471.8979375,6.8359375,27.83203125,25.390625,19.04296875,-3.41796875
1530859471.9018438,29.296875,27.83203125,45.8984375,63.4765625,30.76171875
1530859471.90575,23.92578125,27.83203125,22.4609375,48.828125,-10.7421875
1530859471.9096563,5.37109375,27.83203125,-12.20703125,8.7890625,-15.625
1530859471.9135625,10.25390625,30.2734375,-6.8359375,17.08984375,0.0
1530859471.9174688,24.90234375,28.80859375,22.4609375,61.03515625,-61.5234375
1530859471.921375,24.4140625,25.87890625,96.19140625,62.98828125,-10.7421875
1530859471.9252813,6.8359375,22.94921875,54.19921875,23.4375,2.9296875
1530859471.9291875,1.46484375,20.99609375,-5.37109375,5.859375,-25.87890625
1530859471.9330938,15.13671875,22.94921875,45.8984375,52.24609375,-17.08984375
1530859471.935125,24.4140625,26.3671875,77.63671875,68.84765625,-9.765625
1530859471.9390314,12.20703125,28.80859375,27.83203125,26.85546875,17.578125
1530859471.9429376,1.46484375,27.34375,-10.7421875,-7.8125,20.99609375
1530859471.9468439,8.30078125,28.3203125,31.25,28.3203125,-6.8359375
1530859471.95075,17.578125,30.76171875,41.9921875,69.82421875,-14.16015625
1530859471.9546564,10.7421875,26.3671875,0.0,36.1328125,22.4609375
1530859471.9585626,-3.41796875,24.90234375,-62.98828125,-25.390625,-45.41015625
1530859471.9624689,3.41796875,24.90234375,10.7421875,4.39453125,-53.22265625
1530859471.966375,17.578125,23.4375,118.65234375,65.4296875,4.39453125
1530859471.9702814,20.5078125,27.34375,18.06640625,45.8984375,-36.1328125
1530859471.9741876,10.7421875,34.1796875,-17.578125,5.37109375,-45.41015625
1530859471.9780939,2.9296875,31.25,33.69140625,4.8828125,-39.55078125
1530859471.979125,11.23046875,28.3203125,63.4765625,52.734375,-31.25
1530859471.9830313,12.20703125,32.71484375,29.296875,48.33984375,-26.85546875
1530859471.9869375,-5.37109375,33.69140625,-19.53125,-11.71875,-5.859375
1530859471.9908438,-10.7421875,31.73828125,1.953125,-33.69140625,-16.11328125
1530859471.99475,-1.46484375,31.73828125,46.875,16.6015625,15.625
1530859471.9986563,0.0,34.1796875,10.25390625,39.55078125,52.734375
1530859472.0025625,-16.11328125,35.64453125,-34.1796875,-20.01953125,6.8359375
1530859472.0064688,-35.64453125,36.62109375,33.69140625,-70.80078125,-12.20703125
1530859472.010375,-23.92578125,40.52734375,79.1015625,-13.671875,7.32421875
1530859472.0142813,-16.6015625,47.36328125,47.8515625,22.94921875,5.859375
1530859472.0181875,-40.0390625,46.38671875,14.16015625,-22.94921875,-20.5078125
1530859472.0220938,-48.828125,42.96875,23.92578125,-71.2890625,-29.78515625
1530859472.039125,-49.8046875,41.015625,28.3203125,-49.8046875,-22.4609375
1530859472.0430312,-51.7578125,41.50390625,47.36328125,-3.90625,7.8125
1530859472.0469375,-54.6875,42.96875,62.5,-25.87890625,52.734375
1530859472.0508437,-76.171875,42.48046875,17.578125,-82.03125,10.7421875
1530859472.05475,-82.03125,45.8984375,10.25390625,-80.078125,-0.9765625
1530859472.0586562,-65.91796875,44.921875,34.1796875,-31.25,26.85546875
1530859472.0625625,-58.59375,43.9453125,62.5,-28.80859375,32.71484375
1530859472.0664687,-73.2421875,47.36328125,58.59375,-69.82421875,39.55078125
1530859472.070375,-81.54296875,50.78125,36.1328125,-84.9609375,1.953125
1530859472.0742812,-65.91796875,47.8515625,13.18359375,-38.57421875,-50.78125
1530859472.0781875,-45.41015625,42.96875,80.56640625,-4.39453125,-23.4375
1530859472.0820937,-50.78125,41.9921875,96.6796875,-25.390625,24.4140625
1530859472.085125,-61.03515625,41.9921875,-5.859375,-62.01171875,-14.6484375
1530859472.0890312,-43.9453125,39.55078125,23.4375,-22.4609375,-48.33984375
1530859472.0929375,-26.85546875,39.55078125,78.61328125,24.90234375,-35.15625
1530859472.0968437,-29.296875,44.43359375,39.55078125,-0.9765625,-38.0859375
1530859472.10075,-38.57421875,46.38671875,-13.18359375,-51.26953125,-18.06640625
1530859472.1046562,-32.2265625,45.41015625,-19.04296875,-28.3203125,-21.484375
1530859472.1085625,-16.11328125,46.38671875,62.01171875,40.0390625,1.46484375
1530859472.1124687,-5.37109375,45.8984375,94.7265625,44.43359375,45.8984375
1530859472.116375,-4.8828125,44.43359375,-20.01953125,2.9296875,-11.23046875
1530859472.1202812,1.46484375,41.9921875,-36.1328125,-4.8828125,-79.58984375
1530859472.1241875,27.34375,40.52734375,109.375,58.59375,-54.6875
1530859472.1280937,39.0625,39.0625,103.515625,84.47265625,-3.90625
1530859472.129125,35.15625,40.52734375,24.4140625,45.8984375,-31.25
1530859472.1330314,35.15625,39.0625,19.53125,21.97265625,-35.15625
1530859472.1369376,60.546875,40.52734375,59.08203125,75.68359375,-4.39453125
