timestamp,TP9,AF7,AF8,TP10,Right AUX
1526439179428.125,763.18359375,-249.0234375,-460.9375,-953.125,-227.05078125
1526439179432.0312,-884.765625,-567.3828125,-820.80078125,-417.96875,-895.01953125
1526439179435.9375,-572.75390625,-612.79296875,-1000.0,-932.12890625,-911.1328125
1526439179439.8438,965.8203125,-358.3984375,-776.85546875,586.9140625,-352.05078125
1526439179443.75,-846.19140625,-285.15625,-560.546875,-759.27734375,-175.29296875
1526439179447.6562,-138.671875,-515.13671875,-761.23046875,141.6015625,-676.7578125
1526439179451.5625,-1000.0,-661.62109375,-1000.0,-1000.0,-1000.0
1526439179455.4688,317.87109375,-416.9921875,-804.19921875,-64.94140625,-383.30078125
1526439179459.375,-722.65625,-226.07421875,-495.1171875,-731.4453125,-28.3203125
1526439179463.2812,211.42578125,-418.45703125,-721.19140625,261.71875,-642.08984375
1526439179467.1875,-1000.0,-666.015625,-996.58203125,-1000.0,-1000.0
1526439179471.0938,-195.3125,-570.80078125,-935.05859375,-244.62890625,-854.00390625
1526439179473.125,-751.953125,-310.546875,-674.8046875,-799.8046875,-367.67578125
1526439179477.0312,423.33984375,-373.046875,-683.59375,651.3671875,-499.51171875
1526439179480.9375,-1000.0,-655.2734375,-954.1015625,-985.83984375,-998.53515625
1526439179484.8438,-249.0234375,-628.41796875,-986.81640625,-532.2265625,-925.78125
1526439179488.75,-854.4921875,-345.703125,-762.20703125,976.07421875,-372.0703125
1526439179492.6562,917.96875,-290.52734375,-548.33984375,-870.1171875,-131.34765625
1526439179496.5625,-672.36328125,-547.36328125,-797.8515625,-200.68359375,-624.0234375
1526439179500.4688,-663.0859375,-606.93359375,-1000.0,-1000.0,-916.015625
1526439179504.375,912.109375,-413.0859375,-859.86328125,369.62890625,-613.76953125
1526439179508.2812,-811.03515625,-314.453125,-658.203125,-731.93359375,-246.58203125
1526439179512.1875,15.625,-523.4375,-802.24609375,195.3125,-685.05859375
1526439179516.0938,-1000.0,-716.796875,-996.09375,-1000.0,-1000.0
1526439179518.125,192.3828125,-537.109375,-917.96875,-160.15625,-790.0390625
1526439179522.0312,-710.9375,-293.45703125,-650.87890625,-748.046875,-246.58203125
1526439179525.9375,216.796875,-388.671875,-697.265625,346.19140625,-446.77734375
1526439179529.8438,-1000.0,-662.59765625,-980.46875,-1000.0,-1000.0
1526439179533.75,-246.09375,-597.65625,-956.0546875,-263.18359375,-903.80859375
1526439179537.6562,-774.4140625,-273.92578125,-619.62890625,-847.16796875,-164.55078125
1526439179541.5625,528.80859375,-262.6953125,-455.56640625,845.703125,89.84375
1526439179545.4688,-1000.0,-630.37109375,-833.49609375,-756.34765625,-729.00390625
1526439179549.375,-316.89453125,-678.7109375,-1000.0,-674.31640625,-1000.0
1526439179553.2812,-901.3671875,-376.46484375,-770.01953125,895.01953125,-303.22265625
1526439179557.1875,-977.05078125,-321.77734375,-596.19140625,-837.890625,-99.609375
1526439179561.0938,-486.328125,-616.69921875,-853.02734375,-136.23046875,-828.61328125
1526439179578.125,-805.6640625,-695.80078125,-1000.0,-1000.0,-1000.0
1526439179582.0312,766.6015625,-409.66796875,-807.6171875,249.0234375,-484.86328125
1526439179585.9375,-776.3671875,-241.69921875,-508.7890625,-724.12109375,-44.921875
1526439179589.8438,123.53515625,-453.61328125,-720.21484375,213.37890625,-602.5390625
1526439179593.75,-1000.0,-691.89453125,-1000.0,-1000.0,-1000.0
1526439179597.6562,73.2421875,-502.44140625,-827.1484375,-198.2421875,-468.26171875
1526439179601.5625,-710.44921875,-233.3984375,-460.9375,-757.8125,165.52734375
1526439179605.4688,223.14453125,-411.1328125,-668.45703125,413.57421875,-449.70703125
1526439179609.375,-1000.0,-715.33203125,-992.1875,-1000.0,-1000.0
1526439179613.2812,-246.58203125,-630.859375,-941.89453125,-296.875,-761.23046875
1526439179617.1875,-788.57421875,-333.0078125,-655.2734375,-863.28125,-138.671875
1526439179621.0938,615.72265625,-340.33203125,-555.17578125,880.859375,-275.87890625
1526439179623.125,-1000.0,-649.4140625,-880.37109375,-683.59375,-955.56640625
1526439179627.0312,-426.7578125,-643.5546875,-1000.0,-788.57421875,-973.6328125
1526439179630.9375,-961.42578125,-358.88671875,-754.39453125,765.13671875,-468.26171875
1526439179634.8438,-894.04296875,-290.0390625,-504.8828125,-796.875,-266.11328125
1526439179638.75,-317.87109375,-556.640625,-759.27734375,-10.7421875,-809.08203125
1526439179642.6562,-936.03515625,-675.78125,-1000.0,-1000.0,-1000.0
1526439179646.5625,599.12109375,-441.40625,-813.96484375,123.046875,-476.5625
1526439179650.4688,-749.51171875,-294.43359375,-513.18359375,-721.19140625,-108.3984375
1526439179654.375,190.91796875,-463.37890625,-721.19140625,224.12109375,-601.5625
1526439179658.2812,-1000.0,-654.78515625,-1000.0,-1000.0,-978.02734375
1526439179662.1875,-46.38671875,-558.59375,-907.2265625,-240.72265625,-800.29296875
1526439179666.0938,-720.703125,-313.4765625,-582.03125,-780.76171875,-257.32421875
1526439179668.125,268.5546875,-372.0703125,-573.73046875,549.8046875,-407.71484375
1526439179672.0312,-1000.0,-660.64453125,-927.734375,-1000.0,-954.1015625
1526439179675.9375,-245.60546875,-624.51171875,-977.5390625,-418.9453125,-897.94921875
1526439179679.8438,-810.05859375,-345.703125,-677.24609375,-937.5,-377.44140625
1526439179683.75,719.7265625,-328.61328125,-491.69921875,-984.375,-275.87890625
1526439179687.6562,-934.5703125,-621.09375,-796.875,-474.12109375,-834.9609375
1526439179691.5625,-540.0390625,-651.85546875,-1000.0,-903.3203125,-922.36328125
1526439179695.4688,982.91015625,-393.5546875,-774.90234375,621.09375,-424.31640625
1526439179699.375,-854.4921875,-253.41796875,-381.8359375,-764.6484375,75.68359375
1526439179703.2812,-191.40625,-478.515625,-585.9375,140.13671875,-370.1171875
1526439179707.1875,-1000.0,-714.35546875,-1000.0,-1000.0,-1000.0
1526439179711.0938,403.80859375,-503.41796875,-860.83984375,-50.29296875,-651.3671875
1526439179713.125,-730.46875,-271.484375,-474.609375,-731.4453125,-78.125
1526439179717.0312,208.984375,-424.8046875,-640.13671875,242.67578125,-563.96484375
1526439179720.9375,-1000.0,-709.47265625,-1000.0,-1000.0,-1000.0
1526439179724.8438,-177.734375,-599.12109375,-908.69140625,-241.69921875,-811.03515625
1526439179728.75,-746.09375,-262.20703125,-485.3515625,-802.24609375,-59.08203125
1526439179732.6562,348.14453125,-299.8046875,-416.015625,663.57421875,-100.5859375
1526439179736.5625,-1000.0,-638.671875,-881.34765625,-975.5859375,-909.1796875
1526439179740.4688,-245.1171875,-633.7890625,-983.88671875,-514.16015625,-864.2578125
1526439179744.375,-835.44921875,-270.99609375,-503.41796875,-986.328125,34.66796875
1526439179748.2812,830.078125,-250.9765625,-359.86328125,-925.29296875,-88.37890625
1526439179752.1875,-793.9453125,-627.9296875,-805.6640625,-333.49609375,-923.33984375
1526439179756.0938,-653.3203125,-676.26953125,-1000.0,-1000.0,-899.4140625
1526439179758.125,918.9453125,-389.6484375,-786.62109375,428.22265625,-421.38671875
1526439179762.0312,-826.171875,-270.01953125,-459.9609375,-742.67578125,-236.81640625
1526439179765.9375,-71.2890625,-497.55859375,-687.98828125,165.52734375,-715.33203125
1526439179769.8438,-1000.0,-678.7109375,-1000.0,-1000.0,-1000.0
1526439179773.75,214.84375,-487.79296875,-866.69921875,-136.23046875,-680.17578125
1526439179777.6562,-716.30859375,-238.76953125,-417.96875,-745.1171875,-26.85546875
1526439179781.5625,217.28515625,-371.09375,-539.0625,302.734375,-407.2265625
1526439179785.4688,-1000.0,-666.015625,-991.2109375,-1000.0,-990.234375
1526439179789.375,-244.140625,-583.0078125,-938.96484375,-259.765625,-632.8125
1526439179793.2812,-769.04296875,-340.33203125,-608.3984375,-815.4296875,-226.5625
1526439179797.1875,460.44921875,-382.8125,-570.80078125,708.0078125,-437.5
1526439179801.0938,-1000.0,-676.26953125,-912.109375,-918.45703125,-953.61328125
1526439179803.125,-305.6640625,-666.015625,-995.60546875,-625.9765625,-940.4296875
1526439179807.0312,-881.8359375,-364.74609375,-702.63671875,904.78515625,-455.078125
1526439179810.9375,952.63671875,-270.99609375,-392.08984375,-840.33203125,-158.203125
1526439179814.8438,-604.00390625,-551.26953125,-675.78125,-129.39453125,-698.73046875
1526439179818.75,-781.73828125,-676.7578125,-1000.0,-1000.0,-1000.0
1526439179822.6562,793.45703125,-409.66796875,-764.16015625,276.85546875,-441.89453125
1526439179826.5625,-790.0390625,-236.328125,-336.42578125,-724.609375,62.5
1526439179830.4688,40.52734375,-416.9921875,-541.015625,211.9140625,-336.9140625
1526439179834.375,-1000.0,-689.453125,-991.2109375,-1000.0,-972.65625
1526439179838.2812,104.4921875,-584.9609375,-904.78515625,-206.54296875,-837.890625
1526439179842.1875,-714.35546875,-295.8984375,-464.35546875,-759.765625,-86.9140625
1526439179846.0938,223.14453125,-386.71875,-544.921875,377.44140625,-353.515625
1526439179848.125,-1000.0,-710.44921875,-980.46875,-1000.0,-1000.0
1526439179852.0312,-246.58203125,-661.62109375,-959.47265625,-314.94140625,-912.109375
1526439179855.9375,-782.71484375,-332.51953125,-570.80078125,-861.81640625,-250.0
1526439179859.8438,575.1953125,-333.49609375,-443.359375,840.33203125,-276.3671875
1526439179863.75,-1000.0,-660.64453125,-850.09765625,-758.30078125,-977.5390625
1526439179867.6562,-396.97265625,-668.9453125,-1000.0,-731.4453125,-909.66796875
1526439179871.5625,-940.91796875,-332.51953125,-606.4453125,819.3359375,-46.38671875
1526439179875.4688,-932.6171875,-222.65625,-239.74609375,-811.5234375,220.703125
1526439179879.375,-389.6484375,-565.4296875,-680.6640625,-39.0625,-739.2578125
1526439179883.2812,-915.0390625,-726.07421875,-1000.0,-1000.0,-1000.0
1526439179887.1875,627.44140625,-471.6796875,-791.9921875,140.625,-526.3671875
1526439179891.0938,-755.859375,-291.9921875,-434.5703125,-722.16796875,-130.37109375
1526439179893.125,164.0625,-472.16796875,-648.92578125,223.14453125,-621.09375
1526439179897.0312,-1000.0,-696.77734375,-1000.0,-1000.0,-1000.0
1526439179900.9375,-14.16015625,-568.359375,-894.04296875,-233.3984375,-737.79296875
1526439179904.8438,-718.75,-317.3828125,-514.16015625,-770.5078125,-229.4921875
1526439179908.75,230.95703125,-395.01953125,-541.50390625,479.4921875,-427.24609375
1526439179912.6562,-1000.0,-675.29296875,-955.078125,-1000.0,-984.375
1526439179916.5625,-242.67578125,-609.86328125,-920.41015625,-336.42578125,-631.34765625
1526439179920.4688,-804.19921875,-342.7734375,-562.01171875,-891.6015625,-78.125
1526439179924.375,686.5234375,-377.44140625,-491.69921875,946.77734375,-364.2578125
1526439179928.2812,-971.19140625,-667.48046875,-833.0078125,-564.453125,-916.015625
1526439179932.1875,-495.60546875,-693.359375,-1000.0,-882.8125,-970.703125
1526439179936.0938,-1000.0,-435.546875,-760.25390625,651.3671875,-478.02734375
1526439179953.125,-858.3984375,-340.33203125,-467.28515625,-775.87890625,-259.27734375
1526439179957.0312,-206.0546875,-571.2890625,-713.8671875,63.96484375,-759.765625
1526439179960.9375,-1000.0,-723.14453125,-1000.0,-1000.0,-1000.0
1526439179964.8438,471.19140625,-503.90625,-816.40625,10.25390625,-561.5234375
1526439179968.75,-733.88671875,-299.8046875,-416.015625,-726.5625,-44.43359375
1526439179972.6562,202.63671875,-430.6640625,-550.78125,260.7421875,-367.1875
1526439179976.5625,-1000.0,-673.33984375,-955.078125,-1000.0,-850.09765625
1526439179980.4688,-112.79296875,-627.44140625,-924.8046875,-248.046875,-842.7734375
1526439179984.375,-730.95703125,-366.69921875,-564.453125,-788.0859375,-268.5546875
1526439179988.2812,352.05078125,-412.59765625,-543.9453125,593.26171875,-400.390625
1526439179992.1875,-1000.0,-714.84375,-915.52734375,-1000.0,-975.5859375
1526439179996.0938,-249.0234375,-695.3125,-986.328125,-468.26171875,-905.76171875
1526439179998.125,-832.51953125,-391.6015625,-650.87890625,-972.16796875,-348.14453125
1526439180002.0312,828.125,-344.23828125,-423.33984375,-935.546875,-237.3046875
1526439180005.9375,-801.26953125,-643.06640625,-764.16015625,-363.28125,-853.02734375
1526439180009.8438,-608.88671875,-704.1015625,-1000.0,-991.2109375,-1000.0
1526439180013.75,945.80078125,-434.5703125,-762.6953125,495.60546875,-496.58203125
1526439180017.6562,-831.0546875,-298.33984375,-371.58203125,-746.09375,-14.6484375
1526439180021.5625,-82.51953125,-515.625,-627.9296875,164.55078125,-549.31640625
1526439180025.4688,-1000.0,-708.984375,-1000.0,-1000.0,-1000.0
1526439180029.375,278.3203125,-528.3203125,-831.54296875,-77.63671875,-573.73046875
1526439180033.2812,-718.75,-282.71484375,-349.609375,-731.93359375,225.5859375
1526439180037.1875,214.35546875,-443.359375,-556.640625,274.4140625,-346.6796875
1526439180041.0938,-1000.0,-759.765625,-1000.0,-1000.0,-1000.0
1526439180043.125,-226.07421875,-652.83203125,-889.6484375,-245.60546875,-741.2109375
1526439180047.0312,-761.23046875,-360.3515625,-534.66796875,-803.7109375,-192.3828125
1526439180050.9375,436.03515625,-412.59765625,-532.2265625,674.8046875,-486.328125
1526439180054.8438,-1000.0,-699.21875,-902.83203125,-961.42578125,-1000.0
1526439180058.75,-264.6484375,-670.8984375,-990.234375,-551.26953125,-824.21875
1526439180062.6562,-865.234375,-370.1171875,-625.48828125,967.28515625,-187.98828125
1526439180066.5625,935.546875,-322.75390625,-362.3046875,-869.140625,-110.83984375
1526439180070.4688,-636.23046875,-641.6015625,-721.19140625,-182.6171875,-829.1015625
1526439180074.375,-723.14453125,-700.68359375,-1000.0,-1000.0,-878.41796875
1526439180078.2812,853.02734375,-421.875,-746.09375,307.12890625,-200.68359375
1526439180082.1875,-798.828125,-368.1640625,-479.98046875,-729.4921875,-192.87109375
1526439180086.0938,42.48046875,-598.14453125,-738.76953125,184.5703125,-783.69140625
1526439180088.125,-1000.0,-775.87890625,-1000.0,-1000.0,-1000.0
1526439180092.0312,140.625,-612.3046875,-885.25390625,-188.4765625,-812.01171875
1526439180095.9375,-711.42578125,-392.08984375,-547.36328125,-756.34765625,-326.66015625
1526439180099.8438,220.21484375,-492.1875,-639.6484375,337.40234375,-548.828125
1526439180103.75,-1000.0,-752.44140625,-989.74609375,-1000.0,-1000.0
1526439180107.6562,-246.58203125,-684.5703125,-927.24609375,-275.390625,-793.9453125
1526439180111.5625,-776.85546875,-392.578125,-561.03515625,-844.23828125,-235.3515625
1526439180115.4688,538.57421875,-418.45703125,-451.66015625,807.6171875,-275.87890625
1526439180119.375,-1000.0,-694.3359375,-819.82421875,-787.59765625,-781.73828125
1526439180123.2812,-352.05078125,-713.8671875,-1000.0,-729.4921875,-950.68359375
1526439180127.1875,-912.59765625,-463.37890625,-736.81640625,817.87109375,-571.2890625
1526439180131.0938,-974.609375,-368.65234375,-411.62109375,-815.4296875,-284.66796875
1526439180133.125,-464.84375,-619.140625,-665.0390625,-60.05859375,-714.84375
1526439180137.0312,-878.41796875,-746.09375,-1000.0,-1000.0,-1000.0
1526439180140.9375,678.22265625,-516.11328125,-816.89453125,157.71484375,-659.66796875
1526439180144.8438,-767.08984375,-344.7265625,-399.4140625,-723.14453125,-151.3671875
1526439180148.75,120.60546875,-528.3203125,-608.3984375,218.26171875,-568.359375
1526439180152.6562,-1000.0,-758.30078125,-1000.0,-1000.0,-1000.0
1526439180156.5625,5.37109375,-619.140625,-883.7890625,-222.16796875,-764.6484375
1526439180160.4688,-720.21484375,-330.078125,-385.25390625,-767.578125,20.99609375
1526439180164.375,230.46875,-387.6953125,-381.8359375,435.546875,-133.7890625
1526439180168.2812,-1000.0,-737.79296875,-938.96484375,-1000.0,-1000.0
1526439180172.1875,-245.60546875,-697.265625,-964.84375,-369.62890625,-912.59765625
1526439180176.0938,-790.52734375,-372.0703125,-534.1796875,-893.5546875,-267.578125
1526439180178.125,614.74609375,-379.39453125,-385.7421875,902.34375,-324.21875
1526439180182.0312,-1000.0,-694.3359375,-809.08203125,-671.875,-986.81640625
1526439180185.9375,-487.3046875,-701.171875,-1000.0,-805.17578125,-912.59765625
1526439180189.8438,-986.81640625,-403.3203125,-645.5078125,739.2578125,-330.56640625
1526439180193.75,-896.97265625,-331.0546875,-328.125,-788.0859375,-231.4453125
1526439180197.6562,-309.08203125,-575.1953125,-636.23046875,34.1796875,-781.73828125
1526439180201.5625,-1000.0,-695.3125,-1000.0,-1000.0,-1000.0
1526439180205.4688,476.5625,-437.01171875,-678.7109375,99.12109375,-287.59765625
1526439180209.375,-739.74609375,-261.23046875,-217.28515625,-719.7265625,85.9375
1526439180213.2812,192.87109375,-474.12109375,-541.9921875,225.09765625,-626.46484375
1526439180217.1875,-1000.0,-717.7734375,-1000.0,-1000.0,-1000.0
1526439180221.0938,-110.3515625,-600.5859375,-873.046875,-244.62890625,-801.26953125
1526439180223.125,-732.91015625,-339.35546875,-402.83203125,-782.2265625,-280.2734375
1526439180227.0312,276.3671875,-402.34375,-371.09375,532.2265625,-468.75
1526439180230.9375,-1000.0,-689.453125,-865.234375,-1000.0,-1000.0
1526439180234.8438,-246.09375,-665.0390625,-960.44921875,-456.54296875,-898.4375
1526439180238.75,-806.640625,-367.1875,-478.02734375,-969.23828125,-361.328125
1526439180242.6562,694.82421875,-310.546875,-108.3984375,-954.1015625,-187.5
1526439180246.5625,-951.171875,-564.453125,-458.0078125,-397.94921875,-738.28125
1526439180250.4688,-614.74609375,-616.2109375,-897.94921875,-990.234375,-953.61328125
1526439180254.375,950.68359375,-387.6953125,-526.85546875,504.8828125,-485.83984375
1526439180258.2812,-875.9765625,-263.671875,36.62109375,-755.37109375,-191.40625
1526439180262.1875,-224.12109375,-468.75,-193.359375,112.79296875,-690.4296875
1526439180266.0938,-1000.0,-667.48046875,-763.671875,-1000.0,-1000.0
1526439180268.125,208.984375,-477.5390625,-461.42578125,-97.16796875,-667.48046875
1526439180272.0312,-727.05078125,-210.9375,301.7578125,-742.67578125,-120.1171875
1526439180275.9375,209.9609375,-300.29296875,339.35546875,264.16015625,-401.3671875
1526439180279.8438,-1000.0,-609.375,-245.60546875,-1000.0,-1000.0
1526439180283.75,-233.3984375,-558.10546875,-182.6171875,-250.9765625,-827.63671875
1526439180287.6562,-772.94921875,-198.2421875,640.625,-809.5703125,-27.34375
1526439180291.5625,268.06640625,-157.2265625,-964.35546875,680.17578125,173.828125
1526439180295.4688,-1000.0,-515.625,507.8125,-951.66015625,-726.07421875
1526439180299.375,-401.85546875,-549.8046875,359.375,-584.9609375,-875.48828125
1526439180303.2812,-849.12109375,-156.73828125,935.05859375,988.76953125,59.08203125
1526439180307.1875,595.21484375,-100.5859375,-976.5625,-958.49609375,140.13671875
1526439180311.0938,-957.03125,-420.8984375,974.609375,-354.98046875,-749.0234375
1526439180328.125,-966.30859375,-479.4921875,999.0234375,-1000.0,-1000.0
1526439180332.0312,556.15234375,-197.75390625,-1000.0,226.5625,-239.74609375
1526439180335.9375,-936.5234375,-132.8125,999.0234375,-751.953125,235.83984375
1526439180339.8438,-396.97265625,-410.15625,999.51171875,102.5390625,-531.73828125
1526439180343.75,-1000.0,-637.6953125,999.51171875,-1000.0,-1000.0
1526439180347.6562,-129.39453125,-430.6640625,999.51171875,-200.1953125,-281.73828125
1526439180351.5625,-816.89453125,-262.6953125,999.51171875,-777.34375,460.44921875
1526439180355.4688,66.89453125,-446.2890625,999.51171875,267.08984375,-275.87890625
1526439180359.375,-1000.0,-732.91015625,999.51171875,-1000.0,-1000.0
1526439180363.2812,-325.68359375,-625.9765625,999.51171875,-426.26953125,-552.734375
1526439180367.1875,-836.9140625,-352.5390625,999.51171875,-845.21484375,174.8046875
1526439180371.0938,275.390625,-400.390625,999.51171875,395.5078125,-4.39453125
1526439180373.125,-1000.0,-750.48828125,999.51171875,-977.05078125,-736.328125
1526439180377.0312,-861.328125,-998.53515625,999.51171875,-1000.0,-1000.0
1526439180380.9375,744.140625,-961.9140625,999.51171875,-555.6640625,-947.265625
1526439180384.8438,310.05859375,-932.6171875,999.51171875,-351.07421875,-935.05859375
1526439180388.75,-1000.0,-1000.0,999.51171875,-933.10546875,-994.140625
1526439180392.6562,-1000.0,-783.203125,999.51171875,-1000.0,-845.21484375
1526439180396.5625,-335.9375,338.37890625,999.51171875,-79.1015625,377.44140625
1526439180400.4688,-139.16015625,-977.5390625,999.51171875,-833.0078125,-920.8984375
1526439180404.375,-1000.0,973.6328125,999.51171875,-154.78515625,954.58984375
1526439180408.2812,-964.84375,990.72265625,999.51171875,-1000.0,997.0703125
1526439180412.1875,-949.70703125,-997.0703125,999.51171875,-910.15625,-998.53515625
1526439180416.0938,-970.21484375,999.51171875,-1000.0,-964.84375,999.51171875
1526439180418.125,-969.23828125,999.51171875,997.55859375,-970.21484375,999.51171875
1526439180422.0312,-969.23828125,999.51171875,978.515625,-969.23828125,999.51171875
1526439180425.9375,-969.23828125,999.51171875,-946.77734375,-969.23828125,999.51171875
1526439180429.8438,-969.23828125,999.51171875,667.48046875,-969.23828125,999.51171875
1526439180433.75,-969.23828125,999.51171875,333.49609375,-969.23828125,999.51171875
1526439180437.6562,-969.23828125,999.51171875,660.15625,-969.23828125,999.51171875
1526439180441.5625,-969.23828125,999.51171875,871.58203125,-969.23828125,999.51171875
1526439180445.4688,-969.23828125,999.51171875,995.1171875,-969.23828125,999.51171875
1526439180449.375,-969.23828125,999.51171875,998.53515625,-969.23828125,999.51171875
1526439180453.2812,-969.23828125,999.51171875,996.09375,-969.23828125,999.51171875
1526439180457.1875,-969.23828125,999.51171875,-997.55859375,-969.23828125,-999.51171875
1526439180461.0938,-969.23828125,999.51171875,992.67578125,-969.23828125,990.234375
1526439180463.125,-969.23828125,999.51171875,979.98046875,-969.23828125,999.0234375
1526439180467.0312,-969.23828125,999.51171875,997.55859375,-969.23828125,-965.8203125
1526439180470.9375,-969.23828125,999.51171875,484.86328125,-969.23828125,601.5625
1526439180474.8438,-969.23828125,999.51171875,-553.22265625,-969.23828125,650.87890625
1526439180478.75,-969.23828125,999.51171875,-992.67578125,-969.23828125,-922.36328125
1526439180482.6562,-969.23828125,999.51171875,-945.3125,-969.23828125,981.93359375
1526439180486.5625,-969.23828125,999.51171875,-964.84375,-969.23828125,-418.9453125
1526439180490.4688,-969.23828125,999.51171875,-972.65625,-969.23828125,-287.59765625
1526439180494.375,-969.23828125,999.51171875,-958.984375,-969.23828125,-945.3125
1526439180498.2812,-969.23828125,999.51171875,-976.5625,-969.23828125,-844.23828125
1526439180502.1875,-969.23828125,999.51171875,-896.97265625,-969.23828125,231.93359375
1526439180506.0938,-969.23828125,999.51171875,-504.39453125,-969.23828125,-113.76953125
1526439180508.125,-969.23828125,999.51171875,-205.56640625,-969.23828125,969.7265625
1526439180512.0312,-969.23828125,999.51171875,-135.7421875,-969.23828125,-844.23828125
1526439180515.9375,-969.23828125,999.51171875,-65.4296875,-969.23828125,550.78125
1526439180519.8438,-969.23828125,999.51171875,-374.51171875,-969.23828125,-348.14453125
1526439180523.75,-969.23828125,997.0703125,-884.765625,-969.23828125,528.80859375
1526439180527.6562,-969.23828125,-999.51171875,-982.91015625,-969.23828125,-766.6015625
1526439180531.5625,-969.23828125,-996.58203125,-953.125,-969.23828125,563.4765625
1526439180535.4688,-969.23828125,925.78125,-972.16796875,-969.23828125,-860.3515625
1526439180539.375,-969.23828125,950.1953125,-968.75,-969.23828125,-39.55078125
1526439180543.2812,-969.23828125,-988.76953125,-958.984375,-969.23828125,-892.08984375
1526439180547.1875,-969.23828125,995.1171875,-996.58203125,-969.23828125,-895.01953125
1526439180551.0938,-969.23828125,999.51171875,-828.61328125,-969.23828125,-73.73046875
1526439180553.125,-969.23828125,-1000.0,-691.89453125,-969.23828125,-227.05078125
1526439180557.0312,-969.23828125,997.55859375,-934.08203125,-969.23828125,-972.16796875
1526439180560.9375,-969.7265625,-996.58203125,-978.515625,-980.46875,-806.640625
1526439180564.8438,-896.97265625,958.49609375,-857.91015625,-888.671875,192.87109375
1526439180568.75,-1000.0,983.3984375,-922.36328125,-1000.0,-590.33203125
1526439180572.6562,-51.26953125,575.68359375,-982.421875,-318.359375,713.8671875
1526439180576.5625,467.7734375,-306.15234375,-963.8671875,333.0078125,-781.73828125
1526439180580.4688,-917.96875,-324.70703125,-969.7265625,-871.09375,510.7421875
1526439180584.375,-1000.0,-130.37109375,-971.19140625,-1000.0,-801.7578125
1526439180588.2812,-145.01953125,-302.24609375,-960.9375,-256.34765625,97.65625
1526439180592.1875,-906.73828125,-738.76953125,-970.21484375,-827.63671875,-839.35546875
1526439180596.0938,-203.61328125,-443.359375,-973.6328125,246.09375,958.0078125
1526439180598.125,-1000.0,269.04296875,-574.70703125,-1000.0,-324.21875
1526439180602.0312,-218.26171875,280.76171875,-600.5859375,-240.234375,-110.3515625
1526439180605.9375,-816.89453125,-341.30859375,-1000.0,-787.59765625,-906.73828125
1526439180609.8438,281.73828125,-632.8125,-977.05078125,489.74609375,-876.46484375
1526439180613.75,-1000.0,-213.8671875,-890.13671875,-1000.0,-62.01171875
1526439180617.6562,-426.26953125,-239.2578125,-893.06640625,-673.828125,-495.60546875
1526439180621.5625,-909.66796875,-791.50390625,-978.02734375,958.49609375,941.89453125
1526439180625.4688,824.21875,-1000.0,-968.26171875,853.02734375,-972.65625
1526439180629.375,-836.42578125,-782.71484375,-967.7734375,-629.39453125,-165.52734375
1526439180633.2812,-731.4453125,-486.81640625,-970.21484375,-1000.0,-1000.0
1526439180637.1875,789.55078125,-707.51953125,-963.8671875,31.73828125,34.66796875
1526439180641.0938,-776.85546875,-1000.0,-974.609375,-890.13671875,-973.14453125
1526439180643.125,114.2578125,-688.96484375,-966.796875,-210.9375,-172.8515625
1526439180647.0312,-1000.0,77.1484375,-831.54296875,-1000.0,-1000.0
1526439180650.9375,225.09765625,-22.4609375,-895.99609375,-405.76171875,-579.1015625
1526439180654.8438,-702.1484375,-845.21484375,-987.79296875,998.53515625,107.421875
1526439180658.75,269.04296875,-793.9453125,-974.609375,-174.8046875,-479.98046875
1526439180662.6562,-1000.0,-60.546875,-880.37109375,-1000.0,-1000.0
1526439180666.5625,-240.234375,-98.14453125,-880.859375,-894.53125,-944.3359375
1526439180670.4688,-789.55078125,-774.90234375,-978.515625,-969.7265625,-937.98828125
1526439180674.375,684.08203125,-1000.0,-979.4921875,-969.7265625,-956.54296875
1526439180678.2812,-966.30859375,-506.8359375,-921.38671875,-969.23828125,-973.14453125
1526439180682.1875,-333.49609375,-176.26953125,-894.53125,-969.23828125,-967.7734375
1526439180686.0938,-915.52734375,-679.19921875,-948.73046875,-969.23828125,-969.7265625
1526439180703.125,-902.83203125,-986.328125,-1000.0,-969.23828125,-969.23828125
1526439180707.0312,-327.63671875,-364.2578125,-791.015625,-969.23828125,-969.23828125
1526439180710.9375,-859.375,301.26953125,-372.0703125,-969.23828125,-969.23828125
1526439180714.8438,714.84375,-157.71484375,-737.79296875,-969.23828125,-969.23828125
1526439180718.75,-773.4375,-908.69140625,-1000.0,-969.23828125,-969.23828125
1526439180722.6562,134.765625,-651.3671875,-860.83984375,-969.23828125,-969.23828125
1526439180726.5625,-1000.0,34.66796875,-481.93359375,-969.23828125,-969.23828125
1526439180730.4688,-84.9609375,-349.609375,-705.078125,-969.23828125,-969.23828125
1526439180734.375,-736.328125,-1000.0,-995.60546875,-969.23828125,-969.23828125
1526439180738.2812,242.67578125,-916.015625,-1000.0,-969.23828125,-969.23828125
1526439180742.1875,-1000.0,-316.40625,-644.53125,-969.23828125,-969.23828125
1526439180746.0938,-261.71875,-116.2109375,-445.3125,-969.23828125,-969.23828125
1526439180748.125,-784.1796875,-776.3671875,-919.921875,-969.23828125,-969.23828125
1526439180752.0312,365.234375,-923.828125,-1000.0,-969.23828125,-969.23828125
1526439180755.9375,-1000.0,-118.65234375,-317.87109375,-969.23828125,-969.23828125
1526439180759.8438,-857.91015625,404.296875,413.0859375,-969.23828125,-969.23828125
1526439180763.75,768.06640625,-324.70703125,-273.4375,-969.23828125,-969.23828125
1526439180767.6562,741.69921875,-1000.0,-1000.0,-969.23828125,-969.23828125
1526439180771.5625,-815.91796875,-574.21875,-646.97265625,-969.23828125,-969.23828125
1526439180775.4688,-1000.0,-33.69140625,-32.71484375,-969.23828125,-969.23828125
1526439180779.375,-18.06640625,-509.765625,-458.49609375,-969.23828125,-968.26171875
1526439180783.2812,-843.26171875,-1000.0,-1000.0,-969.23828125,-967.7734375
1526439180787.1875,-154.296875,-833.0078125,-876.46484375,-962.40234375,-969.23828125
1526439180791.0938,-1000.0,-283.203125,-366.2109375,-968.75,-969.23828125
1526439180793.125,-186.03515625,-251.46484375,-125.48828125,-1000.0,-969.23828125
1526439180797.0312,-806.15234375,-853.02734375,-569.3359375,-692.87109375,-969.23828125
1526439180800.9375,277.34375,-865.234375,-753.90625,-773.4375,-969.23828125
1526439180804.8438,-1000.0,-194.82421875,-262.6953125,-962.40234375,-969.23828125
1526439180808.75,-582.03125,-40.52734375,24.4140625,-1000.0,-969.23828125
1526439180812.6562,-932.6171875,-689.94140625,-269.04296875,-15.13671875,-969.23828125
1526439180816.5625,366.2109375,-1000.0,-609.86328125,290.52734375,-969.23828125
1526439180820.4688,-1000.0,-588.8671875,-682.6171875,-988.28125,-969.23828125
1526439180824.375,-1000.0,-319.3359375,-456.54296875,-1000.0,-969.23828125
1526439180828.2812,394.04296875,-705.56640625,-493.65234375,-28.80859375,-969.23828125
1526439180832.1875,848.6328125,-1000.0,-769.04296875,569.82421875,-969.23828125
1526439180836.0938,-726.07421875,-770.5078125,-812.01171875,-857.91015625,-969.23828125
1526439180838.125,-1000.0,-283.203125,-549.31640625,-1000.0,-969.23828125
1526439180842.0312,-129.8828125,-522.94921875,-413.57421875,-232.421875,-969.23828125
1526439180845.9375,-822.265625,-1000.0,-461.9140625,-863.76953125,-969.23828125
1526439180849.8438,33.69140625,-794.43359375,-484.375,56.640625,-968.26171875
1526439180853.75,-1000.0,-132.32421875,-382.32421875,-1000.0,-969.7265625
1526439180857.6562,-199.70703125,-277.83203125,-203.61328125,-375.48828125,-970.21484375
1526439180861.5625,-794.43359375,-959.47265625,-266.6015625,-865.234375,-946.2890625
1526439180865.4688,275.87890625,-938.96484375,-463.8671875,317.87109375,-956.54296875
1526439180869.375,-1000.0,-273.92578125,-392.578125,-1000.0,-968.26171875
1526439180873.2812,-548.33984375,-211.9140625,-385.25390625,-717.7734375,-981.4453125
1526439180877.1875,-921.875,-859.375,-566.40625,845.21484375,-911.62109375
1526439180881.0938,595.21484375,-1000.0,-571.2890625,893.5546875,-888.671875
1526439180883.125,-994.62890625,-598.6328125,-548.828125,-705.56640625,-962.40234375
1526439180887.0312,-930.17578125,-56.15234375,-380.859375,-1000.0,-994.140625
1526439180890.9375,511.71875,-525.390625,-243.65234375,352.5390625,-905.2734375
1526439180894.8438,-797.8515625,-1000.0,-340.8203125,-750.48828125,-728.515625
1526439180898.75,-137.20703125,-743.1640625,-520.01953125,96.19140625,-896.484375
1526439180902.6562,-1000.0,-81.54296875,-512.20703125,-1000.0,-994.62890625
1526439180906.5625,-20.5078125,-443.84765625,-437.98828125,-100.5859375,-969.23828125
1526439180910.4688,-747.0703125,-1000.0,-524.90234375,-743.1640625,-314.453125
1526439180914.375,241.2109375,-907.71484375,-623.53515625,276.85546875,-361.81640625
1526439180918.2812,-1000.0,-288.57421875,-705.078125,-1000.0,-1000.0
1526439180922.1875,-243.1640625,-352.5390625,-540.0390625,-238.76953125,-1000.0
1526439180926.0938,-775.87890625,-975.09765625,-504.8828125,-824.21875,-447.75390625
1526439180928.125,486.81640625,-1000.0,-597.16796875,777.83203125,-421.875
1526439180932.0312,-1000.0,-427.734375,-560.05859375,-864.2578125,-995.1171875
1526439180935.9375,-419.43359375,-73.73046875,-352.5390625,-483.88671875,-1000.0
1526439180939.8438,-947.75390625,-741.2109375,-264.6484375,989.2578125,-390.625
1526439180943.75,-967.28515625,-1000.0,-473.6328125,-819.82421875,-108.88671875
1526439180947.6562,-469.7265625,-606.4453125,-511.23046875,-69.82421875,-855.46875
1526439180951.5625,-909.66796875,71.77734375,-317.87109375,-897.4609375,-1000.0
1526439180955.4688,629.8828125,-458.0078125,-112.79296875,584.9609375,-339.84375
1526439180959.375,-758.30078125,-1000.0,-316.89453125,-734.375,296.38671875
1526439180963.2812,145.01953125,-803.7109375,-555.6640625,191.40625,-544.43359375
1526439180967.1875,-1000.0,-29.296875,-381.34765625,-1000.0,-1000.0
1526439180971.0938,4.39453125,-271.484375,-193.359375,-21.97265625,-826.171875
1526439180973.125,-716.30859375,-1000.0,-384.765625,-738.28125,52.24609375
1526439180977.0312,274.4140625,-955.56640625,-541.50390625,593.26171875,-191.40625
1526439180980.9375,-1000.0,-198.73046875,-425.78125,-999.0234375,-1000.0
1526439180984.8438,-238.76953125,-110.3515625,-228.515625,-259.765625,-993.1640625
1526439180988.75,-833.49609375,-886.71875,-316.89453125,-907.71484375,-81.54296875
1526439180992.6562,837.890625,-1000.0,-470.703125,-876.953125,239.2578125
1526439180996.5625,-799.8046875,-436.03515625,-333.0078125,-281.25,-804.6875
1526439181000.4688,-396.484375,29.296875,-152.34375,-466.796875,-1000.0
1526439181004.375,-971.6796875,-704.58984375,-323.73046875,988.76953125,-378.41796875
1526439181008.2812,-812.98828125,-1000.0,-619.140625,-789.0625,240.72265625
1526439181012.1875,-48.828125,-698.2421875,-617.67578125,111.81640625,-582.03125
1526439181016.0938,-707.51953125,-92.28515625,-505.37109375,-825.1953125,-1000.0
1526439181018.125,782.71484375,-523.92578125,-463.37890625,578.61328125,-630.37109375
1526439181022.0312,-732.91015625,-1000.0,-621.58203125,-724.609375,249.51171875
1526439181025.9375,248.046875,-864.2578125,-626.953125,411.1328125,-246.09375
1526439181029.8438,-916.50390625,-144.04296875,-511.71875,-1000.0,-1000.0
1526439181033.75,410.15625,-327.1484375,-447.265625,46.38671875,-872.0703125
1526439181037.6562,-830.078125,-1000.0,-623.046875,-813.4765625,208.49609375
1526439181041.5625,999.0234375,-1000.0,-730.46875,977.5390625,188.96484375
1526439181045.4688,-322.75390625,-623.53515625,-821.2890625,-488.76953125,-935.05859375
1526439181049.375,-12.20703125,-583.0078125,-983.88671875,-314.453125,-1000.0
1526439181053.2812,-866.69921875,-987.3046875,-963.37890625,-926.26953125,-236.81640625
1526439181057.1875,-860.3515625,-1000.0,-967.7734375,-821.77734375,-172.36328125
1526439181061.0938,91.30859375,-847.16796875,-969.23828125,-10.25390625,-958.0078125
1526439181078.125,-204.58984375,-773.92578125,-969.23828125,-364.2578125,-1000.0
1526439181082.0312,-901.85546875,-963.8671875,-969.23828125,975.5859375,-558.59375
1526439181085.9375,-996.09375,-986.81640625,-969.23828125,-770.01953125,-29.78515625
1526439181089.8438,968.75,-935.546875,-969.23828125,169.43359375,-696.77734375
1526439181093.75,-995.1171875,-884.765625,-969.23828125,-645.99609375,-1000.0
1526439181097.6562,999.51171875,-955.56640625,-969.23828125,746.58203125,-572.75390625
1526439181101.5625,999.51171875,-977.05078125,-969.23828125,-812.98828125,29.78515625
1526439181105.4688,999.51171875,-964.35546875,-969.23828125,776.85546875,-645.01953125
1526439181109.375,999.51171875,-970.21484375,-969.23828125,-603.02734375,-1000.0
1526439181113.2812,999.51171875,-969.23828125,-969.23828125,122.0703125,-889.6484375
1526439181117.1875,999.51171875,-969.23828125,-969.23828125,-855.95703125,-533.69140625
1526439181121.0938,999.51171875,-969.23828125,-969.23828125,-886.23046875,-626.46484375
1526439181123.125,999.51171875,-969.23828125,-969.23828125,26.3671875,-986.81640625
1526439181127.0312,999.51171875,-969.23828125,-969.23828125,-168.9453125,-1000.0
1526439181130.9375,999.51171875,-969.23828125,-969.23828125,-953.125,-655.2734375
1526439181134.8438,999.51171875,-969.23828125,-969.23828125,-821.77734375,-526.85546875
1526439181138.75,999.51171875,-969.23828125,-969.23828125,323.2421875,-956.54296875
1526439181142.6562,999.51171875,-969.23828125,-969.23828125,-114.74609375,-1000.0
1526439181146.5625,999.51171875,-969.23828125,-969.23828125,-968.26171875,-705.078125
1526439181150.4688,999.51171875,-969.23828125,-969.23828125,-959.9609375,-440.91796875
1526439181154.375,999.51171875,-969.23828125,-969.23828125,945.3125,-888.18359375
1526439181158.2812,999.51171875,-969.23828125,-969.23828125,919.43359375,-1000.0
1526439181162.1875,999.51171875,-969.23828125,-969.23828125,983.3984375,-925.78125
1526439181166.0938,999.51171875,-969.23828125,-969.23828125,-990.72265625,-802.734375
1526439181168.125,999.51171875,-969.23828125,-969.23828125,993.1640625,-893.5546875
1526439181172.0312,999.51171875,-969.23828125,-969.23828125,-999.0234375,-989.74609375
1526439181175.9375,999.51171875,-969.23828125,-969.23828125,999.51171875,-973.14453125
1526439181179.8438,999.51171875,-969.23828125,-969.23828125,999.51171875,-830.078125
1526439181183.75,999.51171875,-969.23828125,-969.23828125,999.51171875,-846.19140625
1526439181187.6562,999.51171875,-969.23828125,-969.23828125,999.51171875,-986.328125
1526439181191.5625,999.51171875,-969.23828125,-969.23828125,-999.51171875,-969.7265625
1526439181195.4688,999.51171875,-969.23828125,-969.23828125,994.140625,-958.49609375
1526439181199.375,999.51171875,-969.23828125,-969.23828125,-989.2578125,-905.76171875
1526439181203.2812,999.51171875,-969.23828125,-969.23828125,969.7265625,-942.3828125
1526439181207.1875,999.51171875,-969.23828125,-969.23828125,931.640625,-990.72265625
1526439181211.0938,999.51171875,-969.23828125,-969.23828125,975.5859375,-941.40625
1526439181213.125,999.51171875,-969.23828125,-969.23828125,-967.7734375,-833.0078125
1526439181217.0312,999.51171875,-969.23828125,-969.23828125,974.12109375,-924.31640625
1526439181220.9375,999.51171875,-969.23828125,-969.23828125,573.2421875,-999.0234375
1526439181224.8438,999.51171875,-969.23828125,-969.23828125,847.16796875,-942.3828125
1526439181228.75,999.51171875,-969.23828125,-969.23828125,-970.703125,-672.36328125
1526439181232.6562,999.51171875,-969.23828125,-969.23828125,-874.51171875,-771.97265625
1526439181236.5625,999.51171875,-969.23828125,-969.23828125,79.58984375,-1000.0
1526439181240.4688,999.51171875,-969.23828125,-969.23828125,49.8046875,-992.1875
1526439181244.375,999.51171875,-969.23828125,-969.23828125,-910.64453125,-438.96484375
1526439181248.2812,999.51171875,-969.23828125,-969.23828125,-831.54296875,-501.46484375
1526439181252.1875,999.51171875,-969.23828125,-969.23828125,56.640625,-1000.0
1526439181256.0938,999.51171875,-969.23828125,-969.23828125,-258.7890625,-996.58203125
1526439181258.125,999.51171875,-969.23828125,-969.23828125,-990.72265625,-810.546875
1526439181262.0312,999.51171875,-969.23828125,-969.23828125,-778.3203125,-678.22265625
1526439181265.9375,999.51171875,-969.23828125,-969.23828125,118.65234375,-934.08203125
1526439181269.8438,999.51171875,-969.23828125,-969.23828125,-518.06640625,-1000.0
1526439181273.75,999.51171875,-969.23828125,-969.23828125,858.3984375,-856.4453125
1526439181277.6562,999.51171875,-969.23828125,-969.23828125,-778.80859375,-375.48828125
1526439181281.5625,999.51171875,-969.23828125,-969.23828125,500.9765625,-668.9453125
1526439181285.4688,999.51171875,-969.23828125,-969.23828125,-880.37109375,-1000.0
1526439181289.375,999.51171875,-969.23828125,-969.23828125,187.98828125,-936.03515625
1526439181293.2812,999.51171875,-969.23828125,-969.23828125,-803.7109375,-466.796875
1526439181297.1875,999.51171875,-969.23828125,-969.23828125,965.8203125,-539.0625
1526439181301.0938,999.51171875,-969.23828125,-969.23828125,-471.6796875,-999.0234375
1526439181303.125,999.51171875,-969.23828125,-969.23828125,-306.15234375,-1000.0
1526439181307.0312,999.51171875,-969.23828125,-969.23828125,-925.78125,-438.96484375
1526439181310.9375,999.51171875,-969.23828125,-969.23828125,-822.265625,-259.27734375
1526439181314.8438,999.51171875,-969.23828125,-969.23828125,-17.08984375,-920.8984375
1526439181318.75,999.51171875,-969.23828125,-969.23828125,-395.5078125,-1000.0
1526439181322.6562,999.0234375,-967.28515625,-969.23828125,969.7265625,-487.79296875
1526439181326.5625,-1000.0,-973.6328125,-969.23828125,-777.34375,157.2265625
1526439181330.4688,997.55859375,-956.54296875,-968.75,146.97265625,-479.00390625
1526439181334.375,995.60546875,-931.640625,-969.23828125,-825.68359375,-1000.0
1526439181338.2812,991.69921875,-958.49609375,-969.23828125,553.22265625,-804.19921875
1526439181342.1875,-990.234375,-972.16796875,-969.23828125,-736.328125,7.32421875
1526439181346.0938,991.2109375,-974.12109375,-969.23828125,506.34765625,-281.25
1526439181348.125,868.1640625,-856.4453125,-969.23828125,-982.421875,-1000.0
1526439181352.0312,953.125,-862.3046875,-969.23828125,-67.87109375,-931.640625
1526439181355.9375,990.72265625,-973.14453125,-969.23828125,-822.75390625,16.11328125
1526439181359.8438,-874.51171875,-992.1875,-969.23828125,990.234375,-76.171875
1526439181363.75,206.0546875,-845.703125,-969.23828125,-483.3984375,-1000.0
1526439181367.6562,252.9296875,-793.45703125,-969.23828125,-316.40625,-1000.0
1526439181371.5625,-921.875,-959.9609375,-968.75,-933.10546875,21.97265625
1526439181375.4688,-837.890625,-1000.0,-967.28515625,-817.3828125,486.328125
1526439181379.375,193.84765625,-845.703125,-970.703125,-19.04296875,-767.578125
1526439181383.2812,-187.5,-621.58203125,-965.33203125,-550.29296875,-1000.0
1526439181387.1875,993.65234375,-838.37890625,-958.984375,901.3671875,-469.23828125
1526439181391.0938,-798.828125,-1000.0,-967.28515625,-766.6015625,235.83984375
1526439181393.125,422.8515625,-880.37109375,-972.16796875,159.66796875,-474.609375
1526439181397.0312,-139.6484375,-468.75,-965.8203125,-982.421875,-1000.0
1526439181400.9375,936.5234375,-606.93359375,-942.87109375,327.63671875,-690.91796875
1526439181404.8438,-884.765625,-1000.0,-961.9140625,-721.6796875,149.90234375
1526439181408.75,900.390625,-960.9375,-971.6796875,538.0859375,-251.46484375
1526439181412.6562,-47.36328125,-521.97265625,-975.09765625,-988.76953125,-1000.0
1526439181416.5625,538.0859375,-447.265625,-914.0625,-176.26953125,-687.01171875
1526439181420.4688,-887.20703125,-897.94921875,-922.36328125,-855.95703125,203.125
1526439181424.375,-900.390625,-1000.0,-979.4921875,-961.42578125,-154.296875
1526439181428.2812,133.30078125,-663.0859375,-966.30859375,-430.17578125,-977.5390625
1526439181432.1875,55.17578125,-433.10546875,-969.23828125,-343.26171875,-1000.0
1526439181436.0938,-927.24609375,-842.7734375,-969.23828125,-950.1953125,-433.59375
1526439181453.125,-829.58984375,-1000.0,-969.23828125,-809.5703125,-89.84375
1526439181457.0312,279.296875,-774.90234375,-969.23828125,34.66796875,-803.22265625
1526439181460.9375,-156.73828125,-417.48046875,-969.23828125,-663.0859375,-1000.0
1526439181464.8438,975.5859375,-726.07421875,-969.23828125,796.38671875,-670.8984375
1526439181468.75,-814.453125,-1000.0,-968.26171875,-753.41796875,96.6796875
1526439181472.6562,559.5703125,-868.1640625,-965.33203125,256.34765625,-375.0
1526439181476.5625,-105.95703125,-396.97265625,-975.09765625,-1000.0,-1000.0
1526439181480.4688,849.609375,-509.765625,-887.20703125,120.60546875,-803.22265625
1526439181484.375,-847.65625,-988.28125,-857.91015625,-739.74609375,2.9296875
1526439181488.2812,846.19140625,-917.96875,-662.109375,674.8046875,-90.33203125
1526439181492.1875,-547.8515625,-422.36328125,-501.46484375,-888.18359375,-893.5546875
1526439181496.0938,80.56640625,-363.28125,-474.609375,-295.8984375,-1000.0
1526439181498.125,-823.2421875,-841.796875,-340.8203125,-866.2109375,-83.49609375
1526439181502.0312,-923.828125,-1000.0,-289.55078125,-975.5859375,140.13671875
1526439181505.9375,-271.484375,-590.8203125,-205.56640625,-496.58203125,-850.5859375
1526439181509.8438,-322.75390625,-258.7890625,-87.40234375,-498.046875,-1000.0
1526439181513.75,-945.3125,-690.4296875,8.30078125,983.3984375,-263.18359375
1526439181517.6562,-802.734375,-959.9609375,82.51953125,-799.31640625,612.79296875
1526439181521.5625,54.19921875,-645.5078125,219.7265625,121.58203125,-248.046875
1526439181525.4688,-479.4921875,-259.27734375,219.23828125,-904.78515625,-1000.0
1526439181529.375,927.734375,-541.9921875,221.19140625,496.09375,-406.25
1526439181533.2812,-790.0390625,-947.265625,222.65625,-724.609375,883.7890625
1526439181537.1875,193.84765625,-843.26171875,92.28515625,228.02734375,29.78515625
1526439181541.0938,-1000.0,-411.1328125,-42.96875,-1000.0,-1000.0
1526439181543.125,99.12109375,-427.734375,19.53125,-213.8671875,-602.05078125
1526439181547.0312,-713.37890625,-825.1953125,57.6171875,-767.08984375,478.515625
1526439181550.9375,229.4921875,-712.890625,58.59375,403.3203125,162.59765625
1526439181554.8438,-1000.0,-87.890625,264.16015625,-1000.0,-955.56640625
1526439181558.75,-473.6328125,248.53515625,506.34765625,-538.0859375,-728.02734375
1526439181562.6562,-861.81640625,-35.15625,705.56640625,-879.8828125,540.52734375
1526439181566.5625,237.79296875,-104.98046875,747.55859375,475.5859375,925.29296875
1526439181570.4688,-1000.0,440.91796875,827.1484375,-924.8046875,-446.77734375
1526439181574.375,-939.453125,920.41015625,987.79296875,-1000.0,-719.23828125
1526439181578.2812,-941.89453125,695.3125,-995.60546875,47.36328125,666.50390625
1526439181582.1875,-976.07421875,351.07421875,988.28125,528.3203125,-860.3515625
1526439181586.0938,-969.23828125,780.76171875,986.328125,-908.203125,169.43359375
1526439181588.125,-969.23828125,-960.9375,999.0234375,-1000.0,-765.625
1526439181592.0312,-969.23828125,980.95703125,-1000.0,-731.93359375,286.62109375
1526439181595.9375,-969.23828125,999.0234375,998.53515625,-143.5546875,-876.46484375
1526439181599.8438,-969.23828125,-1000.0,999.51171875,-805.17578125,900.390625
1526439181603.75,-969.23828125,999.51171875,999.51171875,-1000.0,325.68359375
1526439181607.6562,-969.23828125,999.51171875,999.51171875,-916.9921875,565.91796875
1526439181611.5625,-969.23828125,999.51171875,999.51171875,-982.421875,-936.5234375
1526439181615.4688,-969.23828125,999.51171875,999.51171875,-969.23828125,-990.234375
1526439181619.375,-969.23828125,999.51171875,999.51171875,-969.23828125,881.34765625
1526439181623.2812,-969.23828125,999.51171875,999.51171875,-969.23828125,790.52734375
1526439181627.1875,-969.23828125,999.51171875,999.51171875,-969.23828125,980.46875
1526439181631.0938,-969.23828125,999.51171875,999.51171875,-975.5859375,-931.640625
1526439181633.125,-969.23828125,999.51171875,999.51171875,-940.4296875,737.3046875
1526439181637.0312,-969.23828125,999.51171875,999.51171875,-1000.0,568.359375
1526439181640.9375,-969.23828125,999.51171875,999.51171875,-798.828125,969.23828125
1526439181644.8438,-969.23828125,999.51171875,999.51171875,-559.5703125,-934.08203125
1526439181648.75,-969.23828125,999.51171875,999.51171875,-891.11328125,820.3125
1526439181652.6562,-969.23828125,999.51171875,999.51171875,-1000.0,525.87890625
1526439181656.5625,-969.23828125,999.51171875,999.51171875,-772.4609375,869.140625
1526439181660.4688,-969.23828125,999.51171875,999.51171875,456.0546875,-954.58984375
1526439181664.375,-969.23828125,-1000.0,999.51171875,-294.921875,987.79296875
1526439181668.2812,-969.23828125,992.67578125,999.51171875,-1000.0,405.2734375
1526439181672.1875,-969.23828125,-981.93359375,999.51171875,-972.65625,497.0703125
1526439181676.0938,-969.23828125,921.875,999.51171875,397.4609375,-959.9609375
1526439181678.125,-969.23828125,883.30078125,999.51171875,283.69140625,-923.828125
1526439181682.0312,-969.23828125,993.1640625,999.51171875,-1000.0,469.23828125
1526439181685.9375,-969.23828125,-966.796875,999.51171875,-1000.0,323.73046875
1526439181689.8438,-969.23828125,873.53515625,999.51171875,168.45703125,-989.2578125
1526439181693.75,-969.23828125,746.09375,999.51171875,457.51953125,-926.7578125
1526439181697.6562,-969.23828125,959.9609375,999.51171875,-963.8671875,742.1875
1526439181701.5625,-969.23828125,-965.33203125,999.0234375,-1000.0,534.1796875
1526439181705.4688,-969.23828125,916.015625,999.51171875,-65.4296875,942.87109375
1526439181709.375,-981.93359375,619.140625,999.0234375,-961.42578125,-913.57421875
1526439181713.2812,-903.80859375,760.7421875,994.62890625,-330.078125,787.109375
1526439181717.1875,-1000.0,-947.265625,997.0703125,-1000.0,226.5625
1526439181721.0938,-752.9296875,898.92578125,982.91015625,-193.84765625,684.5703125
1526439181723.125,131.8359375,372.55859375,848.6328125,-815.4296875,-919.43359375
1526439181727.0312,-658.69140625,409.66796875,669.921875,235.3515625,959.47265625
1526439181730.9375,-1000.0,965.33203125,829.58984375,-1000.0,365.234375
1526439181734.8438,-841.796875,971.6796875,967.7734375,-414.55078125,460.44921875
1526439181738.75,648.92578125,430.17578125,784.66796875,-860.83984375,-952.1484375
1526439181742.6562,338.8671875,273.4375,682.6171875,521.484375,-976.07421875
1526439181746.5625,-1000.0,819.3359375,853.515625,-1000.0,799.8046875
1526439181750.4688,-960.44921875,-958.49609375,953.61328125,-721.6796875,765.13671875
1526439181754.375,587.40234375,535.64453125,694.3359375,808.59375,975.09765625
1526439181758.2812,630.37109375,24.90234375,416.9921875,-918.45703125,-915.0390625
1526439181762.1875,-980.46875,436.03515625,406.73828125,-362.3046875,694.82421875
1526439181766.0938,-1000.0,991.2109375,499.0234375,-1000.0,65.91796875
1526439181768.125,246.09375,531.25,379.39453125,204.58984375,678.7109375
1526439181772.0312,-754.39453125,-179.6875,111.328125,-733.3984375,-879.39453125
1526439181775.9375,-28.3203125,47.36328125,42.48046875,212.890625,820.3125
1526439181779.8438,-1000.0,765.625,197.75390625,-1000.0,21.484375
1526439181783.75,-13.671875,589.84375,243.65234375,-194.82421875,353.02734375
1526439181787.6562,-735.83984375,-145.99609375,38.57421875,-763.18359375,-939.453125
1526439181791.5625,287.59765625,-125.48828125,35.64453125,547.36328125,-935.546875
1526439181795.4688,-1000.0,610.83984375,166.015625,-1000.0,242.67578125
1526439181799.375,-225.09765625,704.1015625,150.390625,-254.39453125,57.6171875
1526439181803.2812,-869.140625,-15.625,9.765625,-890.625,996.09375
1526439181807.1875,969.7265625,-333.0078125,-199.70703125,-940.91796875,-951.66015625
1526439181811.0938,-604.00390625,272.4609375,-142.08984375,-429.6875,173.828125
1526439181828.125,-333.984375,771.484375,-0.9765625,-619.62890625,-229.00390625
1526439181832.0312,-940.91796875,134.27734375,-75.68359375,931.15234375,697.75390625
1526439181835.9375,-823.2421875,-441.89453125,-340.8203125,-800.29296875,-861.328125
1526439181839.8438,-11.71875,12.20703125,-344.7265625,110.3515625,458.0078125
1526439181843.75,-753.41796875,752.9296875,-179.19921875,-1000.0,-375.9765625
1526439181847.6562,749.51171875,412.59765625,-56.640625,237.3046875,398.4375
1526439181851.5625,-754.39453125,-334.47265625,-225.5859375,-708.49609375,-849.609375
1526439181855.4688,192.87109375,-167.48046875,-467.7734375,213.37890625,689.453125
1526439181859.375,-1000.0,678.22265625,-284.66796875,-1000.0,-385.25390625
1526439181863.2812,-10.7421875,613.28125,-89.84375,-233.3984375,46.875
1526439181867.1875,-713.37890625,-278.3203125,-326.66015625,-775.390625,-915.52734375
1526439181871.0938,342.7734375,-390.625,-576.171875,494.62890625,896.484375
1526439181873.125,-1000.0,468.26171875,-375.48828125,-1000.0,-70.80078125
1526439181877.0312,-261.71875,730.46875,-187.98828125,-445.3125,-238.76953125
1526439181880.9375,-798.828125,-116.2109375,-376.46484375,-902.83203125,817.87109375
1526439181884.8438,683.59375,-551.26953125,-623.53515625,859.86328125,-990.72265625
1526439181888.75,-956.54296875,165.52734375,-525.390625,-676.26953125,50.29296875
1526439181892.6562,-633.30078125,820.3125,-243.65234375,-982.91015625,-337.890625
1526439181896.5625,941.40625,208.984375,-220.21484375,514.6484375,642.08984375
1526439181900.4688,-881.8359375,-542.96875,-489.74609375,-788.0859375,-904.78515625
1526439181904.375,-239.2578125,-78.61328125,-550.29296875,-46.875,368.1640625
1526439181908.2812,-1000.0,818.84765625,-201.171875,-1000.0,-340.8203125
1526439181912.1875,179.19921875,418.45703125,-193.359375,-118.1640625,225.09765625
1526439181916.0938,-729.4921875,-570.3125,-566.40625,-764.16015625,-989.74609375
1526439181918.125,212.890625,-384.27734375,-684.08203125,253.41796875,772.94921875
1526439181922.0312,-1000.0,525.87890625,-503.41796875,-1000.0,-497.0703125
1526439181925.9375,-237.3046875,463.8671875,-386.71875,-272.4609375,-469.7265625
1526439181929.8438,-766.6015625,-457.51953125,-528.3203125,-791.9921875,868.1640625
1526439181933.75,322.75390625,-633.30078125,-712.40234375,478.515625,891.11328125
1526439181937.6562,-1000.0,245.1171875,-594.23828125,-1000.0,-335.44921875
1526439181941.5625,-282.2265625,585.44921875,-394.53125,-587.40234375,-675.29296875
1526439181945.4688,-859.375,-290.0390625,-550.78125,955.078125,495.60546875
1526439181949.375,854.98046875,-814.453125,-704.58984375,-976.5625,-874.51171875
1526439181953.2812,-770.01953125,-104.98046875,-621.58203125,-432.12890625,103.515625
1526439181957.1875,-674.8046875,506.8359375,-639.16015625,-1000.0,-1000.0
1526439181961.0938,879.39453125,-169.921875,-726.5625,287.59765625,-107.421875
1526439181963.125,-799.8046875,-981.93359375,-885.7421875,-747.55859375,874.0234375
1526439181967.0312,32.2265625,-549.8046875,-953.61328125,99.12109375,17.08984375
1526439181970.9375,-1000.0,345.703125,-800.29296875,-1000.0,-1000.0
1526439181974.8438,238.76953125,9.27734375,-684.5703125,-161.1328125,-440.4296875
1526439181978.75,-708.0078125,-909.66796875,-815.91796875,-757.32421875,767.08984375
1526439181982.6562,210.9375,-762.6953125,-910.64453125,286.62109375,443.359375
1526439181986.5625,-1000.0,202.63671875,-738.76953125,-1000.0,-812.5
1526439181990.4688,-202.1484375,229.4921875,-544.921875,-243.65234375,-681.640625
1526439181994.375,-787.59765625,-700.68359375,-588.37890625,-803.22265625,691.40625
1526439181998.2812,691.89453125,-965.8203125,-847.65625,667.48046875,559.5703125
1526439182002.1875,-948.73046875,-154.296875,-914.0625,-969.23828125,-760.7421875
1526439182006.0938,-270.99609375,274.4140625,-689.453125,-571.2890625,-851.5625
1526439182008.125,-912.59765625,-543.45703125,-720.21484375,965.33203125,154.78515625
1526439182012.0312,-865.234375,-1000.0,-947.75390625,-879.8828125,469.23828125
1526439182015.9375,-255.37109375,-478.515625,-945.80078125,-218.75,-522.4609375
1526439182019.8438,-665.0390625,275.87890625,-770.5078125,-1000.0,-1000.0
1526439182023.75,892.578125,-320.80078125,-738.76953125,297.36328125,-350.5859375
1526439182027.6562,-780.2734375,-1000.0,-868.65234375,-727.05078125,570.3125
1526439182031.5625,174.31640625,-685.05859375,-925.29296875,203.125,-72.265625
1526439182035.4688,-1000.0,225.09765625,-743.1640625,-1000.0,-1000.0
1526439182039.375,188.4765625,-27.83203125,-518.06640625,-153.3203125,-442.3828125
1526439182043.2812,-698.2421875,-959.47265625,-780.2734375,-745.60546875,352.05078125
1526439182047.1875,367.67578125,-888.671875,-1000.0,365.234375,-60.546875
1526439182051.0938,-1000.0,0.9765625,-854.00390625,-1000.0,-951.66015625
1526439182053.125,-248.046875,73.73046875,-694.3359375,-277.83203125,-909.66796875
1526439182057.0312,-826.171875,-806.15234375,-816.89453125,-851.5625,-5.859375
1526439182060.9375,854.98046875,-1000.0,-954.58984375,849.609375,215.8203125
1526439182064.8438,-764.16015625,-287.109375,-880.37109375,-748.046875,-721.19140625
1526439182068.75,-348.6328125,209.9609375,-752.44140625,-695.80078125,-997.55859375
1526439182072.6562,-933.10546875,-550.29296875,-715.8203125,855.95703125,-122.0703125
1526439182076.5625,-849.12109375,-1000.0,-823.2421875,-810.05859375,549.31640625
1526439182080.4688,-152.83203125,-483.88671875,-738.76953125,7.32421875,-170.41015625
1526439182084.375,-823.73046875,305.17578125,-650.390625,-1000.0,-1000.0
1526439182088.2812,715.8203125,-297.36328125,-736.81640625,143.5546875,-604.98046875
1526439182092.1875,-757.32421875,-1000.0,-808.10546875,-718.26171875,375.48828125
1526439182096.0938,196.2890625,-726.07421875,-864.74609375,222.16796875,-85.9375
1526439182098.125,-1000.0,155.2734375,-820.80078125,-1000.0,-1000.0
1526439182102.0312,-26.85546875,-68.359375,-698.73046875,-238.76953125,-820.80078125
1526439182105.9375,-716.796875,-958.0078125,-739.2578125,-770.99609375,230.95703125
1526439182109.8438,268.5546875,-899.4140625,-861.81640625,397.4609375,134.765625
1526439182113.75,-1000.0,-10.25390625,-817.3828125,-1000.0,-940.91796875
1526439182117.6562,-251.46484375,225.09765625,-574.21875,-391.6015625,-900.390625
1526439182121.5625,-791.9921875,-676.7578125,-495.1171875,-886.23046875,305.6640625
1526439182125.4688,619.62890625,-1000.0,-614.2578125,829.58984375,687.5
1526439182129.375,-1000.0,-236.81640625,-701.66015625,-719.7265625,-604.4921875
1526439182133.2812,-617.67578125,379.8828125,-607.91015625,-951.66015625,-1000.0
1526439182137.1875,958.984375,-396.97265625,-564.94140625,556.15234375,-167.96875
1526439182141.0938,-927.734375,-1000.0,-668.45703125,-790.0390625,538.57421875
1526439182143.125,-323.73046875,-503.90625,-754.39453125,-68.84765625,-333.0078125
1526439182147.0312,-1000.0,392.08984375,-632.32421875,-1000.0,-1000.0
1526439182150.9375,179.6875,-90.33203125,-477.05078125,-20.99609375,-385.7421875
1526439182154.8438,-735.83984375,-1000.0,-589.35546875,-743.1640625,547.36328125
1526439182158.75,174.31640625,-716.796875,-753.90625,240.234375,-8.30078125
1526439182162.6562,-1000.0,305.17578125,-605.95703125,-1000.0,-1000.0
1526439182166.5625,-228.02734375,228.02734375,-285.15625,-240.72265625,-459.47265625
1526439182170.4688,-772.4609375,-793.9453125,-404.78515625,-778.80859375,598.6328125
1526439182174.375,265.13671875,-924.8046875,-745.1171875,434.08203125,213.8671875
1526439182178.2812,-1000.0,24.90234375,-698.2421875,-1000.0,-816.89453125
1526439182182.1875,-318.84765625,325.1953125,-504.39453125,-549.31640625,-902.83203125
1526439182186.0938,-828.61328125,-615.72265625,-558.59375,-980.95703125,53.22265625
1526439182203.125,660.64453125,-1000.0,-704.58984375,917.48046875,374.0234375
1526439182207.0312,-965.8203125,-294.921875,-691.40625,-603.515625,-580.56640625
1526439182210.9375,-756.8359375,405.2734375,-552.24609375,-1000.0,-1000.0
1526439182214.8438,786.1328125,-346.6796875,-534.66796875,364.74609375,-269.04296875
1526439182218.75,-830.078125,-1000.0,-598.6328125,-754.8828125,557.12890625
1526439182222.6562,-163.57421875,-547.36328125,-595.21484375,85.44921875,-56.640625
1526439182226.5625,-1000.0,375.0,-511.23046875,-1000.0,-1000.0
1526439182230.4688,123.53515625,-106.4453125,-466.796875,-145.01953125,-567.3828125
1526439182234.375,-728.02734375,-1000.0,-591.796875,-756.34765625,381.34765625
1526439182238.2812,226.07421875,-764.6484375,-641.6015625,252.44140625,237.79296875
1526439182242.1875,-1000.0,162.59765625,-580.56640625,-1000.0,-725.09765625
1526439182246.0938,-243.65234375,22.4609375,-544.43359375,-253.41796875,-877.9296875
1526439182248.125,-768.5546875,-889.6484375,-585.9375,-803.22265625,141.11328125
1526439182252.0312,431.640625,-974.609375,-612.79296875,633.7890625,398.92578125
1526439182255.9375,-1000.0,-179.6875,-635.25390625,-1000.0,-630.37109375
1526439182259.8438,-308.59375,146.97265625,-608.3984375,-594.7265625,-1000.0
1526439182263.75,-896.97265625,-663.57421875,-546.38671875,945.80078125,-148.4375
1526439182267.6562,986.328125,-1000.0,-556.640625,-886.71875,447.265625
1526439182271.5625,-568.84765625,-484.375,-620.60546875,-273.92578125,-469.23828125
1526439182275.4688,-748.53515625,199.21875,-610.3515625,-1000.0,-1000.0
1526439182279.375,813.96484375,-436.03515625,-510.25390625,346.6796875,-385.7421875
1526439182283.2812,-777.34375,-1000.0,-456.0546875,-732.91015625,701.66015625
1526439182287.1875,141.11328125,-730.46875,-618.1640625,192.3828125,-126.46484375
1526439182291.0938,-1000.0,22.4609375,-733.3984375,-1000.0,-1000.0
1526439182293.125,177.734375,-326.171875,-564.94140625,-172.36328125,-603.515625
1526439182297.0312,-698.73046875,-1000.0,-578.125,-750.0,217.7734375
1526439182300.9375,288.0859375,-915.0390625,-743.65234375,349.609375,-292.48046875
1526439182304.8438,-1000.0,-205.078125,-771.484375,-1000.0,-1000.0
1526439182308.75,-218.75,-217.7734375,-566.40625,-241.2109375,-841.796875
1526439182312.6562,-826.171875,-938.4765625,-482.91015625,-844.7265625,77.63671875
1526439182316.5625,853.515625,-1000.0,-557.12890625,866.2109375,145.99609375
1526439182320.4688,-761.23046875,-460.44921875,-654.296875,-743.1640625,-884.765625
1526439182324.375,-291.50390625,-88.8671875,-515.13671875,-570.3125,-876.953125
1526439182328.2812,-926.26953125,-735.83984375,-384.765625,961.42578125,-83.49609375
1526439182332.1875,-832.03125,-1000.0,-571.77734375,-828.125,36.62109375
1526439182336.0938,-90.33203125,-681.640625,-663.0859375,-34.66796875,-686.03515625
1526439182338.125,-630.37109375,-141.6015625,-662.109375,-1000.0,-1000.0
1526439182342.0312,880.37109375,-593.26171875,-599.609375,308.59375,-711.9140625
1526439182345.9375,-766.6015625,-1000.0,-620.1171875,-716.796875,-93.26171875
1526439182349.8438,160.64453125,-837.40234375,-707.51953125,208.49609375,-504.39453125
1526439182353.75,-1000.0,-257.8125,-714.84375,-1000.0,-1000.0
1526439182357.6562,249.0234375,-483.3984375,-581.54296875,-170.8984375,-792.96875
1526439182361.5625,-715.33203125,-1000.0,-581.0546875,-755.37109375,-24.4140625
1526439182365.4688,562.5,-974.12109375,-674.8046875,514.16015625,-306.640625
1526439182369.375,-996.09375,-374.0234375,-603.02734375,-1000.0,-1000.0
1526439182373.2812,-188.4765625,-360.83984375,-528.80859375,-262.20703125,-1000.0
1526439182377.1875,-881.34765625,-972.16796875,-640.13671875,-890.625,-475.09765625
1526439182381.0938,-891.11328125,-1000.0,-662.109375,-958.0078125,-275.87890625
1526439182383.125,-279.78515625,-628.90625,-682.6171875,-461.9140625,-875.9765625
1526439182387.0312,-316.89453125,-330.078125,-676.26953125,-638.671875,-1000.0
1526439182390.9375,-947.75390625,-839.84375,-635.25390625,911.1328125,-635.7421875
1526439182394.8438,-800.78125,-1000.0,-680.17578125,-792.48046875,-198.73046875
1526439182398.75,59.5703125,-773.4375,-733.88671875,110.3515625,-722.65625
1526439182402.6562,-508.7890625,-294.921875,-705.078125,-1000.0,-1000.0
1526439182406.5625,890.625,-628.90625,-605.95703125,274.4140625,-791.50390625
1526439182410.4688,-761.71875,-1000.0,-585.44921875,-704.58984375,-26.3671875
1526439182414.375,339.84375,-897.4609375,-581.54296875,280.2734375,-265.13671875
1526439182418.2812,-876.46484375,-367.67578125,-695.80078125,-1000.0,-1000.0
1526439182422.1875,383.30078125,-513.18359375,-646.484375,-183.59375,-939.453125
1526439182426.0938,-795.8984375,-1000.0,-639.6484375,-788.57421875,-331.54296875
1526439182428.125,896.97265625,-1000.0,-723.6328125,727.5390625,-465.8203125
1526439182432.0312,-565.4296875,-541.015625,-759.765625,-892.08984375,-1000.0
1526439182435.9375,-193.359375,-461.42578125,-677.24609375,-293.45703125,-1000.0
1526439182439.8438,-882.8125,-959.47265625,-633.7890625,-920.8984375,-448.73046875
1526439182443.75,-854.00390625,-1000.0,-694.3359375,-857.91015625,-270.99609375
1526439182447.6562,-74.21875,-666.50390625,-677.734375,-215.33203125,-903.80859375
1526439182451.5625,-289.55078125,-288.57421875,-583.984375,-631.34765625,-1000.0
1526439182455.4688,-972.16796875,-781.25,-430.17578125,896.97265625,-369.140625
1526439182459.375,-786.62109375,-1000.0,-596.19140625,-780.2734375,-31.73828125
1526439182463.2812,64.94140625,-810.05859375,-805.6640625,164.0625,-826.66015625
1526439182467.1875,-583.49609375,-346.19140625,-750.0,-1000.0,-1000.0
1526439182471.0938,844.7265625,-625.9765625,-666.9921875,219.7265625,-839.35546875
1526439182473.125,-767.578125,-1000.0,-784.1796875,-704.58984375,-382.32421875
1526439182477.0312,471.19140625,-938.4765625,-870.60546875,343.26171875,-610.83984375
1526439182480.9375,-918.9453125,-419.921875,-778.80859375,-1000.0,-1000.0
1526439182484.8438,201.171875,-498.046875,-640.13671875,-205.56640625,-981.4453125
1526439182488.75,-810.05859375,-992.67578125,-708.49609375,-849.609375,-492.1875
1526439182492.6562,997.0703125,-1000.0,-721.6796875,944.82421875,-434.08203125
1526439182496.5625,-427.24609375,-480.46875,-542.48046875,-612.79296875,-970.21484375
1526439182500.4688,-307.6171875,-233.3984375,-370.60546875,-330.56640625,-1000.0
1526439182504.375,-921.875,-890.13671875,-522.4609375,-941.40625,-606.4453125
1526439182508.2812,-823.2421875,-1000.0,-739.74609375,-822.75390625,-415.0390625
1526439182512.1875,4.8828125,-644.53125,-661.62109375,-26.3671875,-907.71484375
1526439182516.0938,-309.5703125,-191.89453125,-567.87109375,-683.10546875,-1000.0
1526439182518.125,-999.51171875,-718.26171875,-614.2578125,807.12890625,-740.234375
1526439182522.0312,-778.3203125,-1000.0,-763.18359375,-756.34765625,-302.734375
1526439182525.9375,81.54296875,-817.87109375,-765.13671875,177.734375,-664.55078125
1526439182529.8438,-691.89453125,-274.4140625,-727.05078125,-1000.0,-1000.0
1526439182533.75,743.1640625,-534.66796875,-683.10546875,149.4140625,-875.0
1526439182537.6562,-761.23046875,-1000.0,-706.54296875,-732.91015625,-119.140625
1526439182541.5625,529.296875,-954.1015625,-603.515625,626.46484375,-215.8203125
1526439182545.4688,-952.63671875,-370.1171875,-611.328125,-939.453125,-974.609375
1526439182549.375,35.15625,-399.4140625,-673.33984375,-274.90234375,-994.140625
1526439182553.2812,-819.3359375,-982.421875,-694.82421875,-867.1875,-288.57421875
1526439182557.1875,-972.65625,-1000.0,-795.41015625,-966.30859375,-227.5390625
1526439182561.0938,-401.3671875,-575.1953125,-851.5625,-475.5859375,-963.8671875
1526439182578.125,-323.2421875,-345.21484375,-847.65625,-433.59375,-1000.0
1526439182582.0312,-935.05859375,-900.87890625,-812.01171875,-982.421875,-536.1328125
1526439182585.9375,-811.03515625,-1000.0,-861.328125,-806.640625,-228.515625
1526439182589.8438,23.4375,-697.75390625,-846.6796875,44.921875,-833.0078125
1526439182593.75,-454.1015625,-119.62890625,-717.28515625,-815.91796875,-1000.0
1526439182597.6562,941.89453125,-558.10546875,-530.2734375,642.578125,-498.046875
1526439182601.5625,-774.90234375,-1000.0,-576.171875,-735.83984375,198.2421875
1526439182605.4688,141.11328125,-811.03515625,-743.1640625,212.40234375,-593.26171875
1526439182609.375,-951.171875,-93.75,-705.56640625,-1000.0,-1000.0
1526439182613.2812,398.4375,-377.44140625,-604.00390625,-33.203125,-818.359375
1526439182617.1875,-725.09765625,-1000.0,-769.53125,-732.91015625,-300.78125
1526439182621.0938,532.71484375,-968.75,-912.59765625,558.59375,-511.71875
1526439182623.125,-1000.0,-312.5,-806.15234375,-1000.0,-1000.0
1526439182627.0312,-210.9375,-263.18359375,-663.0859375,-270.5078125,-989.74609375
1526439182630.9375,-847.65625,-947.265625,-779.78515625,-873.53515625,-523.4375
1526439182634.8438,-992.1875,-1000.0,-930.17578125,-981.4453125,-466.30859375
1526439182638.75,-506.34765625,-500.0,-836.9140625,-508.30078125,-967.7734375
1526439182642.6562,-333.984375,-37.109375,-596.19140625,-574.70703125,-1000.0
1526439182646.5625,-935.546875,-711.42578125,-604.98046875,958.984375,-595.703125
1526439182650.4688,-825.1953125,-1000.0,-874.0234375,-812.01171875,-328.125
1526439182654.375,-35.15625,-663.0859375,-851.07421875,83.984375,-848.6328125
1526439182658.2812,-761.23046875,68.359375,-530.76171875,-1000.0,-1000.0
1526439182662.1875,750.0,-423.828125,-546.38671875,270.5078125,-831.54296875
1526439182666.0938,-753.41796875,-1000.0,-848.6328125,-707.51953125,-352.5390625
1526439182668.125,188.96484375,-820.3125,-832.03125,220.21484375,-604.4921875
1526439182672.0312,-1000.0,-85.9375,-672.36328125,-1000.0,-1000.0
1526439182675.9375,22.4609375,-332.51953125,-601.5625,-200.68359375,-904.296875
1526439182679.8438,-712.890625,-1000.0,-714.35546875,-774.90234375,-229.98046875
1526439182683.75,440.4296875,-973.6328125,-788.57421875,620.60546875,-355.46875
1526439182687.6562,-1000.0,-302.734375,-697.265625,-1000.0,-1000.0
1526439182691.5625,-264.16015625,-125.48828125,-488.28125,-288.0859375,-962.40234375
1526439182695.4688,-840.8203125,-856.4453125,-593.26171875,-910.64453125,-484.86328125
1526439182699.375,892.578125,-1000.0,-733.3984375,-902.83203125,-89.84375
1526439182703.2812,-717.7734375,-510.25390625,-591.796875,-325.1953125,-614.74609375
1526439182707.1875,-541.50390625,-7.8125,-568.359375,-757.32421875,-1000.0
1526439182711.0938,983.88671875,-659.1796875,-616.69921875,808.59375,-660.15625
1526439182713.125,-826.66015625,-1000.0,-771.97265625,-776.85546875,-173.828125
1526439182717.0312,-66.40625,-721.19140625,-833.0078125,135.7421875,-699.21875
1526439182720.9375,-1000.0,-68.359375,-736.328125,-1000.0,-1000.0
1526439182724.8438,426.26953125,-453.125,-647.94921875,106.4453125,-803.7109375
1526439182728.75,-724.12109375,-1000.0,-748.53515625,-708.0078125,-138.18359375
1526439182732.6562,205.078125,-876.46484375,-814.94140625,271.484375,-408.69140625
1526439182736.5625,-1000.0,-117.1875,-667.96875,-1000.0,-1000.0
1526439182740.4688,-156.25,-234.375,-491.69921875,-244.62890625,-886.71875
1526439182744.375,-745.1171875,-990.72265625,-546.875,-794.921875,107.91015625
1526439182748.2812,479.00390625,-1000.0,-745.1171875,677.734375,-109.375
1526439182752.1875,-1000.0,-368.1640625,-808.10546875,-967.7734375,-1000.0
1526439182756.0938,-255.37109375,-141.6015625,-628.90625,-387.6953125,-915.0390625
1526439182758.125,-866.69921875,-842.28515625,-694.82421875,-945.80078125,-330.078125
1526439182762.0312,973.14453125,-1000.0,-929.6875,-888.18359375,-304.6875
1526439182765.9375,-589.84375,-582.51953125,-872.55859375,-277.34375,-901.85546875
1526439182769.8438,-658.203125,-27.83203125,-695.3125,-884.27734375,-1000.0
1526439182773.75,914.55078125,-601.5625,-689.453125,647.94921875,-671.38671875
1526439182777.6562,-803.7109375,-1000.0,-787.109375,-749.0234375,37.59765625
1526439182781.5625,56.640625,-731.4453125,-785.15625,184.5703125,-451.171875
1526439182785.4688,-1000.0,69.3359375,-584.9609375,-1000.0,-1000.0
1526439182789.375,215.8203125,-273.92578125,-432.12890625,43.9453125,-632.32421875
1526439182793.2812,-707.51953125,-1000.0,-730.46875,-708.49609375,-8.30078125
1526439182797.1875,214.35546875,-916.50390625,-956.0546875,322.75390625,-459.47265625
1526439182801.0938,-1000.0,-181.640625,-861.81640625,-1000.0,-1000.0
1526439182803.125,-242.1875,-269.04296875,-784.66796875,-251.46484375,-963.37890625
1526439182807.0312,-778.3203125,-988.28125,-913.0859375,-822.75390625,-386.71875
1526439182810.9375,592.28515625,-1000.0,-968.75,789.55078125,-374.0234375
1526439182814.8438,-1000.0,-424.31640625,-953.61328125,-846.6796875,-982.91015625
1526439182818.75,-282.2265625,-129.39453125,-880.37109375,-508.30078125,-1000.0
1526439182822.6562,-909.1796875,-801.26953125,-873.53515625,988.28125,-402.83203125
1526439182826.5625,-905.76171875,-1000.0,-968.26171875,-835.9375,-15.625
1526439182830.4688,-356.4453125,-579.58984375,-873.53515625,-81.0546875,-703.125
1526439182834.375,-761.23046875,19.53125,-845.703125,-1000.0,-1000.0
1526439182838.2812,814.453125,-561.5234375,-949.70703125,425.29296875,-736.328125
1526439182842.1875,-774.90234375,-1000.0,-965.33203125,-727.5390625,-152.83203125
1526439182846.0938,171.38671875,-766.6015625,-960.44921875,190.4296875,-529.296875
1526439182848.125,-1000.0,-81.54296875,-962.40234375,-1000.0,-1000.0
1526439182852.0312,104.98046875,-397.94921875,-963.8671875,-144.53125,-875.9765625
1526439182855.9375,-702.1484375,-1000.0,-968.26171875,-743.65234375,-186.5234375
1526439182859.8438,259.27734375,-937.98828125,-970.21484375,387.6953125,-390.625
1526439182863.75,-1000.0,-239.2578125,-967.28515625,-1000.0,-1000.0
1526439182867.6562,-248.53515625,-230.95703125,-941.89453125,-248.046875,-1000.0
1526439182871.5625,-804.6875,-950.68359375,-937.5,-846.6796875,-135.25390625
1526439182875.4688,717.7734375,-1000.0,-951.171875,878.41796875,91.796875
1526439182879.375,-938.96484375,-441.40625,-971.19140625,-714.35546875,-920.8984375
1526439182883.2812,-411.1328125,-37.109375,-961.42578125,-656.25,-1000.0
1526439182887.1875,-957.51953125,-725.09765625,-949.21875,908.203125,-500.9765625
1526439182891.0938,-864.2578125,-1000.0,-968.26171875,-825.1953125,-233.88671875
1526439182893.125,-232.91015625,-660.64453125,-971.19140625,-54.19921875,-843.75
1526439182897.0312,-907.71484375,-40.0390625,-967.28515625,-1000.0,-1000.0
1526439182900.9375,627.9296875,-500.0,-957.51953125,204.1015625,-662.109375
1526439182904.8438,-750.0,-1000.0,-964.84375,-719.23828125,-222.16796875
1526439182908.75,198.2421875,-820.80078125,-969.23828125,217.28515625,-655.2734375
1526439182912.6562,-1000.0,-77.63671875,-976.5625,-1000.0,-1000.0
1526439182916.5625,-54.19921875,-285.15625,-885.25390625,-210.9375,-630.37109375
1526439182920.4688,-721.19140625,-1000.0,-892.578125,-763.18359375,-28.3203125
1526439182924.375,281.73828125,-961.9140625,-986.81640625,453.61328125,-492.67578125
1526439182928.2812,-1000.0,-216.796875,-950.68359375,-1000.0,-1000.0
1526439182932.1875,-251.46484375,-91.30859375,-894.53125,-340.8203125,-1000.0
1526439182936.0938,-795.8984375,-876.953125,-917.48046875,-881.8359375,-474.609375
1526439182953.125,649.90234375,-1000.0,-973.14453125,909.66796875,-344.7265625
1526439182957.0312,-994.62890625,-438.96484375,-937.01171875,-648.4375,-935.546875
1526439182960.9375,-601.5625,66.89453125,-874.0234375,-825.1953125,-1000.0
1526439182964.8438,963.37890625,-622.55859375,-836.9140625,729.4921875,-628.41796875
1526439182968.75,-903.80859375,-1000.0,-874.0234375,-790.52734375,-223.6328125
1526439182972.6562,-283.69140625,-633.30078125,-873.53515625,12.20703125,-735.83984375
1526439182976.5625,-1000.0,127.44140625,-751.953125,-1000.0,-1000.0
1526439182980.4688,220.703125,-368.1640625,-692.87109375,62.98828125,-753.41796875
1526439182984.375,-731.4453125,-1000.0,-723.6328125,-723.6328125,-98.6328125
1526439182988.2812,189.453125,-798.828125,-765.13671875,228.515625,-380.37109375
1526439182992.1875,-1000.0,-0.48828125,-771.484375,-1000.0,-1000.0
1526439182996.0938,-230.95703125,-202.1484375,-665.0390625,-244.62890625,-936.5234375
1526439182998.125,-770.99609375,-992.1875,-624.51171875,-779.78515625,-282.2265625
1526439183002.0312,264.6484375,-975.5859375,-715.8203125,506.8359375,-308.10546875
1526439183005.9375,-1000.0,-257.8125,-798.828125,-1000.0,-971.19140625
1526439183009.8438,-319.3359375,-51.7578125,-691.40625,-456.0546875,-1000.0
1526439183013.75,-825.1953125,-812.5,-579.1015625,-954.58984375,-451.171875
1526439183017.6562,645.01953125,-1000.0,-561.03515625,-996.09375,-98.14453125
1526439183021.5625,-976.07421875,-491.2109375,-630.37109375,-470.703125,-784.1796875
1526439183025.4688,-770.99609375,113.76953125,-617.1875,-1000.0,-1000.0
1526439183029.375,767.08984375,-509.27734375,-415.52734375,486.328125,-482.421875
1526439183033.2812,-831.54296875,-1000.0,-279.296875,-748.53515625,368.1640625
1526439183037.1875,-169.43359375,-672.36328125,-440.4296875,120.60546875,-381.34765625
1526439183041.0938,-1000.0,143.5546875,-529.296875,-1000.0,-1000.0
1526439183043.125,93.26171875,-269.53125,-303.7109375,-48.33984375,-697.265625
1526439183047.0312,-732.421875,-1000.0,-291.015625,-729.98046875,-12.6953125
1526439183050.9375,229.4921875,-851.5625,-492.67578125,251.46484375,-435.05859375
1526439183054.8438,-1000.0,-37.59765625,-526.3671875,-1000.0,-1000.0
1526439183058.75,-241.2109375,-123.53515625,-295.41015625,-243.1640625,-845.703125
1526439183062.6562,-770.99609375,-940.91796875,-213.37890625,-801.26953125,14.16015625
1526439183066.5625,388.671875,-1000.0,-321.2890625,668.45703125,-28.3203125
1526439183070.4688,-1000.0,-305.6640625,-430.17578125,-978.02734375,-968.75
1526439183074.375,-393.06640625,62.01171875,-215.8203125,-481.93359375,-877.44140625
1526439183078.2812,-893.06640625,-676.26953125,-16.6015625,-991.69921875,-112.79296875
1526439183082.1875,860.3515625,-1000.0,-198.2421875,-877.9296875,-52.734375
1526439183086.0938,-722.16796875,-541.9921875,-289.55078125,-215.33203125,-749.0234375
1526439183088.125,-881.8359375,116.69921875,-218.26171875,-1000.0,-1000.0
1526439183092.0312,661.1328125,-482.421875,-109.86328125,424.31640625,-681.640625
1526439183095.9375,-790.52734375,-1000.0,-177.734375,-733.3984375,-86.42578125
1526439183099.8438,-37.59765625,-750.0,-300.78125,188.4765625,-550.78125
1526439183103.75,-1000.0,-11.71875,-258.30078125,-1000.0,-1000.0
1526439183107.6562,16.6015625,-333.49609375,-66.40625,-126.46484375,-743.1640625
1526439183111.5625,-732.421875,-1000.0,-39.55078125,-738.76953125,115.72265625
1526439183115.4688,234.86328125,-906.25,-144.53125,346.19140625,-222.16796875
1526439183119.375,-1000.0,-67.87109375,-8.7890625,-1000.0,-1000.0
1526439183123.2812,-244.140625,-50.29296875,183.59375,-244.140625,-976.07421875
1526439183127.1875,-778.80859375,-910.64453125,58.10546875,-840.8203125,-333.49609375
1526439183131.0938,496.09375,-1000.0,-18.5546875,851.5625,-164.0625
1526439183133.125,-1000.0,-375.0,-37.59765625,-762.6953125,-875.9765625
1526439183137.0312,-483.88671875,-18.5546875,23.4375,-594.23828125,-1000.0
1526439183140.9375,-959.47265625,-731.4453125,38.57421875,954.58984375,-411.62109375
1526439183144.8438,989.2578125,-1000.0,-93.75,-832.03125,-39.55078125
1526439183148.75,-514.16015625,-666.015625,-165.0390625,-95.21484375,-701.171875
1526439183152.6562,-1000.0,-71.77734375,-90.33203125,-1000.0,-1000.0
1526439183156.5625,489.74609375,-530.2734375,16.6015625,333.0078125,-650.390625
1526439183160.4688,-754.39453125,-1000.0,12.6953125,-721.19140625,244.140625
1526439183164.375,84.47265625,-803.7109375,11.71875,208.984375,-157.71484375
1526439183168.2812,-1000.0,-86.42578125,-6.34765625,-1000.0,-1000.0
1526439183172.1875,-81.0546875,-334.47265625,104.00390625,-176.7578125,-845.21484375
1526439183176.0938,-739.2578125,-1000.0,67.3828125,-755.37109375,-23.4375
1526439183178.125,242.67578125,-958.984375,-43.45703125,513.671875,-281.73828125
1526439183182.0312,-1000.0,-274.90234375,-19.53125,-1000.0,-1000.0
1526439183185.9375,-244.140625,-200.68359375,172.36328125,-252.44140625,-929.6875
1526439183189.8438,-792.48046875,-909.66796875,128.41796875,-885.7421875,-157.2265625
1526439183193.75,619.62890625,-1000.0,-30.2734375,-963.37890625,-36.1328125
1526439183197.6562,-1000.0,-528.3203125,53.7109375,-470.703125,-874.0234375
1526439183201.5625,-538.0859375,-120.1171875,159.66796875,-644.53125,-1000.0
1526439183205.4688,986.328125,-736.328125,223.14453125,912.109375,-148.4375
1526439183209.375,-889.16015625,-1000.0,50.29296875,-793.9453125,193.359375
1526439183213.2812,-272.94921875,-740.72265625,-100.5859375,100.09765625,-780.2734375
1526439183217.1875,-1000.0,-200.1953125,39.55078125,-1000.0,-1000.0
1526439183221.0938,351.5625,-572.75390625,94.7265625,266.6015625,-728.515625
1526439183223.125,-731.4453125,-1000.0,-68.84765625,-708.49609375,-145.01953125
1526439183227.0312,206.0546875,-908.69140625,-161.1328125,238.76953125,-513.18359375
1526439183230.9375,-1000.0,-408.69140625,-41.50390625,-1000.0,-1000.0
1526439183234.8438,-174.8046875,-526.3671875,95.703125,-209.47265625,-892.578125
1526439183238.75,-749.0234375,-1000.0,-76.171875,-784.1796875,-213.8671875
1526439183242.6562,266.6015625,-1000.0,-206.0546875,659.1796875,-292.96875
1526439183246.5625,-1000.0,-627.9296875,-102.5390625,-974.609375,-984.86328125
1526439183250.4688,-254.8828125,-542.48046875,32.71484375,-344.7265625,-1000.0
1526439183254.375,-798.33984375,-964.35546875,-152.34375,-908.69140625,-546.875
1526439183258.2812,621.58203125,-1000.0,-335.44921875,-942.3828125,-439.453125
1526439183262.1875,-983.88671875,-739.74609375,-176.7578125,-390.13671875,-951.171875
1526439183266.0938,-761.23046875,-472.16796875,2.9296875,-840.8203125,-1000.0
1526439183268.125,810.05859375,-837.40234375,-59.08203125,706.0546875,-710.9375
1526439183272.0312,-888.671875,-1000.0,-164.55078125,-765.13671875,-293.9453125
1526439183275.9375,-282.2265625,-823.2421875,-45.8984375,157.71484375,-712.40234375
1526439183279.8438,-1000.0,-435.05859375,103.02734375,-1000.0,-1000.0
1526439183283.75,61.03515625,-693.359375,56.15234375,44.43359375,-827.63671875
1526439183287.6562,-748.046875,-1000.0,-90.8203125,-711.9140625,-62.5
1526439183291.5625,170.41015625,-912.109375,-35.15625,270.99609375,-253.41796875
1526439183295.4688,-1000.0,-553.7109375,33.203125,-1000.0,-986.328125
1526439183299.375,-224.609375,-660.64453125,-56.640625,-251.46484375,-996.09375
1526439183303.2812,-781.25,-989.74609375,-138.671875,-791.9921875,-269.53125
1526439183307.1875,271.97265625,-1000.0,-119.140625,630.859375,-189.94140625
1526439183311.0938,-1000.0,-625.48828125,-20.01953125,-1000.0,-968.26171875
1526439183328.125,-511.23046875,-462.40234375,97.65625,-483.88671875,-1000.0
1526439183332.0312,-899.90234375,-906.73828125,80.078125,-969.7265625,-364.74609375
1526439183335.9375,597.16796875,-1000.0,-83.0078125,-938.96484375,-102.5390625
1526439183339.8438,-950.1953125,-750.9765625,-122.55859375,-373.53515625,-867.67578125
1526439183343.75,-1000.0,-380.37109375,11.71875,-1000.0,-1000.0
1526439183347.6562,415.0390625,-708.49609375,113.28125,487.79296875,-378.90625
1526439183351.5625,-868.1640625,-1000.0,-31.73828125,-749.0234375,355.46875
1526439183355.4688,-298.33984375,-849.609375,-212.40234375,144.04296875,-579.58984375
1526439183359.375,-1000.0,-355.46875,-30.2734375,-1000.0,-1000.0
1526439183363.2812,-136.23046875,-548.828125,124.51171875,-111.81640625,-689.453125
1526439183367.1875,-784.1796875,-1000.0,-83.0078125,-740.72265625,4.8828125
1526439183371.0938,241.2109375,-892.578125,-140.625,283.203125,-391.11328125
1526439183373.125,-1000.0,-291.015625,137.20703125,-1000.0,-1000.0
1526439183377.0312,-229.00390625,-333.49609375,279.296875,-245.60546875,-944.82421875
1526439183380.9375,-779.78515625,-945.3125,11.71875,-804.19921875,-190.4296875
1526439183384.8438,294.43359375,-1000.0,-195.80078125,678.22265625,-168.9453125
1526439183388.75,-1000.0,-538.57421875,-46.875,-957.51953125,-975.5859375
1526439183392.6562,-587.890625,-265.13671875,147.4609375,-591.30859375,-1000.0
1526439183396.5625,-972.65625,-791.9921875,5.859375,950.1953125,-293.9453125
1526439183400.4688,759.27734375,-1000.0,-258.7890625,-873.53515625,19.04296875
1526439183404.375,-814.453125,-688.96484375,-139.16015625,-229.00390625,-808.10546875
1526439183408.2812,-1000.0,-88.37890625,282.2265625,-1000.0,-1000.0
1526439183412.1875,325.1953125,-488.28125,209.9609375,321.2890625,-670.41015625
1526439183416.0938,-773.4375,-1000.0,-188.96484375,-729.98046875,54.6875
1526439183418.125,-52.24609375,-780.2734375,-133.30078125,206.0546875,-431.640625
1526439183422.0312,-1000.0,-94.23828125,182.6171875,-1000.0,-1000.0
1526439183425.9375,-138.18359375,-316.40625,188.96484375,-188.4765625,-836.42578125
1526439183429.8438,-766.6015625,-995.1171875,-129.39453125,-754.39453125,113.76953125
1526439183433.75,254.8828125,-929.19921875,-214.35546875,418.9453125,-32.2265625
1526439183437.6562,-1000.0,-297.8515625,9.27734375,-1000.0,-1000.0
1526439183441.5625,-242.1875,-245.60546875,130.859375,-263.671875,-942.87109375
1526439183445.4688,-783.69140625,-885.25390625,-226.5625,-859.375,-156.73828125
1526439183449.375,539.55078125,-1000.0,-410.15625,911.62109375,106.93359375
1526439183453.2812,-1000.0,-560.05859375,-167.48046875,-663.0859375,-687.5
1526439183457.1875,-519.53125,-238.28125,-130.859375,-704.1015625,-1000.0
1526439183461.0938,985.3515625,-738.76953125,-332.51953125,871.09375,-438.4765625
1526439183463.125,-893.5546875,-1000.0,-497.55859375,-812.98828125,141.6015625
1526439183467.0312,-325.68359375,-709.9609375,-371.09375,-56.15234375,-631.8359375
1526439183470.9375,-1000.0,-115.234375,-135.7421875,-1000.0,-1000.0
1526439183474.8438,472.65625,-473.6328125,-160.64453125,227.05078125,-654.296875
1526439183478.75,-737.3046875,-1000.0,-418.9453125,-717.28515625,283.203125
1526439183482.6562,200.68359375,-833.0078125,-414.0625,214.84375,-222.16796875
1526439183486.5625,-1000.0,-188.96484375,-148.92578125,-1000.0,-1000.0
1526439183490.4688,-89.35546875,-330.078125,-99.609375,-207.51953125,-847.16796875
1526439183494.375,-727.05078125,-963.8671875,-344.7265625,-768.5546875,372.55859375
1526439183498.2812,390.13671875,-981.93359375,-539.55078125,565.91796875,87.890625
1526439183502.1875,-1000.0,-450.68359375,-455.56640625,-1000.0,-1000.0
1526439183506.0938,-241.2109375,-289.55078125,-260.25390625,-288.57421875,-938.96484375
1526439183508.125,-869.140625,-836.9140625,-477.5390625,-909.1796875,-131.34765625
1526439183512.0312,979.4921875,-1000.0,-737.3046875,-918.9453125,-60.546875
1526439183515.9375,-595.21484375,-651.85546875,-578.125,-380.37109375,-908.69140625
1526439183519.8438,-480.46875,-237.3046875,-358.3984375,-703.61328125,-1000.0
1526439183523.75,995.60546875,-688.96484375,-509.27734375,852.05078125,-519.53125
1526439183527.6562,-799.31640625,-1000.0,-792.96875,-776.85546875,196.2890625
1526439183531.5625,72.75390625,-806.15234375,-723.6328125,153.80859375,-487.79296875
1526439183535.4688,-826.171875,-308.59375,-482.421875,-1000.0,-1000.0
1526439183539.375,612.79296875,-558.10546875,-472.16796875,220.703125,-638.671875
1526439183543.2812,-721.19140625,-1000.0,-850.09765625,-703.125,79.58984375
1526439183547.1875,253.90625,-927.24609375,-934.08203125,303.22265625,-393.06640625
1526439183551.0938,-1000.0,-462.40234375,-673.828125,-1000.0,-1000.0
1526439183553.125,76.66015625,-531.73828125,-598.6328125,-223.14453125,-928.7109375
1526439183557.0312,-774.4140625,-987.3046875,-866.69921875,-816.40625,-194.82421875
1526439183560.9375,828.61328125,-1000.0,-940.91796875,809.5703125,-270.5078125
1526439183564.8438,-726.5625,-619.62890625,-733.3984375,-810.546875,-1000.0
1526439183568.75,-297.36328125,-497.55859375,-648.4375,-323.2421875,-1000.0
1526439183572.6562,-916.015625,-920.8984375,-824.70703125,-940.4296875,-239.74609375
1526439183576.5625,-838.37890625,-1000.0,-972.65625,-833.0078125,30.2734375
1526439183580.4688,-82.51953125,-742.1875,-731.93359375,-96.19140625,-848.14453125
1526439183584.375,-315.91796875,-451.171875,-631.34765625,-696.2890625,-1000.0
1526439183588.2812,-982.421875,-812.5,-865.234375,817.3828125,-650.390625
1526439183592.1875,-781.73828125,-1000.0,-967.28515625,-759.27734375,-14.16015625
1526439183596.0938,63.96484375,-873.046875,-904.296875,169.43359375,-524.4140625
1526439183598.125,-589.84375,-524.90234375,-798.33984375,-1000.0,-1000.0
1526439183602.0312,844.7265625,-697.265625,-852.5390625,177.734375,-838.8671875
1526439183605.9375,-792.48046875,-1000.0,-976.07421875,-710.9375,-53.7109375
1526439183609.8438,631.34765625,-964.84375,-961.9140625,494.62890625,-328.61328125
1526439183613.75,-725.5859375,-694.82421875,-931.15234375,-1000.0,-1000.0
1526439183617.6562,265.625,-713.37890625,-915.52734375,-218.26171875,-1000.0
1526439183621.5625,-847.16796875,-981.93359375,-963.8671875,-872.0703125,-95.21484375
1526439183625.4688,-910.64453125,-999.0234375,-969.23828125,-953.61328125,44.43359375
1526439183629.375,-74.21875,-810.546875,-961.42578125,-436.03515625,-980.95703125
1526439183633.2812,-154.296875,-737.3046875,-967.28515625,-357.421875,-1000.0
1526439183637.1875,-919.921875,-958.984375,-968.75,-957.03125,-484.375
1526439183641.0938,-820.80078125,-1000.0,-967.7734375,-803.7109375,-247.0703125
1526439183643.125,87.40234375,-862.3046875,-966.30859375,46.875,-893.5546875
1526439183647.0312,-237.79296875,-701.171875,-963.37890625,-619.62890625,-1000.0
1526439183650.9375,-962.40234375,-900.87890625,-957.03125,822.265625,-617.1875
1526439183654.8438,-904.296875,-999.51171875,-967.7734375,-749.0234375,-192.3828125
1526439183658.75,801.7578125,-940.91796875,-970.703125,264.6484375,-732.91015625
1526439183662.6562,352.5390625,-771.97265625,-967.7734375,-975.09765625,-1000.0
1526439183666.5625,903.80859375,-846.6796875,-962.890625,269.53125,-706.0546875
1526439183670.4688,-927.24609375,-987.3046875,-967.7734375,-767.578125,-259.765625
1526439183674.375,976.07421875,-982.91015625,-970.21484375,791.9921875,-685.05859375
1526439183678.2812,660.64453125,-836.9140625,-968.26171875,-729.4921875,-1000.0
1526439183682.1875,826.171875,-811.03515625,-968.75,-247.55859375,-995.1171875
1526439183686.0938,-975.5859375,-971.19140625,-969.23828125,-895.5078125,-680.17578125
1526439183703.125,-873.53515625,-1000.0,-969.23828125,-859.86328125,-625.48828125
1526439183707.0312,208.984375,-831.0546875,-969.23828125,-164.55078125,-973.6328125
1526439183710.9375,168.9453125,-753.90625,-969.23828125,-337.40234375,-1000.0
1526439183714.8438,-934.08203125,-955.56640625,-968.75,-975.09765625,-692.87109375
1526439183718.75,-836.42578125,-1000.0,-969.7265625,-793.45703125,-445.80078125
1526439183722.6562,346.6796875,-841.30859375,-966.796875,83.984375,-887.20703125
1526439183726.5625,-125.48828125,-580.078125,-965.33203125,-699.70703125,-1000.0
1526439183730.4688,957.51953125,-827.63671875,-969.7265625,733.3984375,-827.63671875
1526439183734.375,-804.6875,-1000.0,-969.7265625,-749.51171875,-432.12890625
1526439183738.2812,560.05859375,-926.7578125,-958.0078125,387.6953125,-694.3359375
1526439183742.1875,-249.51171875,-583.984375,-963.8671875,-1000.0,-1000.0
1526439183746.0938,801.26953125,-672.8515625,-971.19140625,34.66796875,-961.42578125
1526439183748.125,-875.48828125,-993.65234375,-968.26171875,-766.6015625,-402.34375
1526439183752.0312,994.140625,-1000.0,-969.23828125,811.5234375,-433.10546875
1526439183755.9375,-323.2421875,-600.09765625,-969.23828125,-737.79296875,-990.72265625
1526439183759.8438,8.30078125,-492.67578125,-966.796875,-297.8515625,-1000.0
1526439183763.75,-852.5390625,-936.5234375,-969.7265625,-916.015625,-460.9375
1526439183767.6562,-873.53515625,-1000.0,-966.30859375,-844.23828125,-124.0234375
1526439183771.5625,-74.70703125,-665.52734375,-952.63671875,-159.1796875,-813.4765625
1526439183775.4688,-295.41015625,-317.3828125,-942.87109375,-510.25390625,-1000.0
1526439183779.375,-969.23828125,-755.37109375,-952.63671875,955.078125,-495.60546875
1526439183783.2812,-787.59765625,-1000.0,-965.8203125,-787.59765625,431.15234375
1526439183787.1875,62.01171875,-762.20703125,-965.33203125,148.92578125,-390.625
1526439183791.0938,-562.5,-213.8671875,-910.64453125,-978.02734375,-1000.0
1526439183793.125,874.51171875,-505.859375,-896.97265625,363.76953125,-669.43359375
1526439183797.0312,-770.5078125,-1000.0,-963.37890625,-709.9609375,62.5
1526439183800.9375,255.37109375,-853.02734375,-956.0546875,324.70703125,-433.59375
1526439183804.8438,-1000.0,-212.40234375,-830.56640625,-1000.0,-1000.0
1526439183808.75,83.984375,-229.00390625,-687.98828125,-200.1953125,-819.3359375
1526439183812.6562,-711.42578125,-873.046875,-834.47265625,-797.8515625,131.8359375
1526439183816.5625,560.05859375,-946.77734375,-906.25,772.94921875,19.04296875
1526439183820.4688,-1000.0,-321.2890625,-745.60546875,-845.703125,-1000.0
1526439183824.375,-282.2265625,-16.6015625,-498.53515625,-322.265625,-817.87109375
1526439183828.2812,-854.4921875,-614.2578125,-562.98828125,-912.109375,156.25
1526439183832.1875,966.30859375,-1000.0,-908.69140625,-891.11328125,114.2578125
1526439183836.0938,-601.07421875,-475.5859375,-739.2578125,-253.41796875,-775.390625
1526439183838.125,-611.328125,105.46875,-488.28125,-850.5859375,-1000.0
1526439183842.0312,962.890625,-395.5078125,-593.26171875,696.77734375,-548.828125
1526439183845.9375,-836.42578125,-973.6328125,-835.44921875,-761.71875,163.57421875
1526439183849.8438,-52.734375,-595.703125,-746.58203125,160.15625,-479.4921875
1526439183853.75,-1000.0,139.16015625,-431.640625,-1000.0,-1000.0
1526439183857.6562,181.640625,-97.65625,-365.234375,-10.25390625,-609.86328125
1526439183861.5625,-717.28515625,-807.6171875,-599.12109375,-719.7265625,429.6875
1526439183865.4688,219.7265625,-699.21875,-715.33203125,249.0234375,-27.83203125
1526439183869.375,-1000.0,91.30859375,-346.6796875,-1000.0,-1000.0
1526439183873.2812,-234.86328125,115.72265625,-193.84765625,-246.58203125,-850.5859375
1526439183877.1875,-776.3671875,-663.0859375,-567.87109375,-793.9453125,82.03125
1526439183881.0938,270.5078125,-777.34375,-657.2265625,603.515625,261.71875
1526439183883.125,-1000.0,-56.640625,-376.953125,-1000.0,-716.796875
1526439183887.0312,-508.30078125,301.7578125,-194.82421875,-638.671875,-976.5625
1526439183890.9375,-890.625,-287.59765625,-297.8515625,944.3359375,46.875
1526439183894.8438,548.828125,-695.3125,-429.6875,-979.00390625,655.2734375
1526439183898.75,-934.08203125,-174.31640625,-319.82421875,-415.52734375,-394.04296875
1526439183902.6562,-1000.0,430.17578125,-84.47265625,-1000.0,-1000.0
1526439183906.5625,286.62109375,3.90625,-146.484375,192.3828125,-220.703125
1526439183910.4688,976.5625,-630.37109375,-326.66015625,-749.51171875,918.45703125
1526439183914.375,-540.52734375,-287.109375,-250.0,124.51171875,269.53125
1526439183918.2812,-1000.0,382.8125,-111.81640625,-1000.0,-1000.0
1526439183922.1875,-161.1328125,188.4765625,-102.05078125,-218.26171875,-590.8203125
1526439183926.0938,-842.28515625,-492.1875,-254.8828125,-779.296875,710.9375
1526439183928.125,41.015625,-399.4140625,-323.2421875,269.53125,425.78125
1526439183932.0312,-1000.0,327.63671875,-81.0546875,-1000.0,-904.296875
1526439183935.9375,-447.75390625,436.5234375,101.5625,-421.38671875,-728.02734375
1526439183939.8438,-894.53125,-244.140625,-65.4296875,-855.46875,572.265625
1526439183943.75,282.71484375,-495.60546875,-254.8828125,520.01953125,780.76171875
1526439183947.6562,-1000.0,139.16015625,-76.171875,-1000.0,-466.30859375
1526439183951.5625,-1000.0,519.04296875,134.765625,-919.921875,-865.72265625
1526439183955.4688,520.01953125,-28.3203125,46.875,608.3984375,448.73046875
1526439183959.375,507.32421875,-581.0546875,-189.453125,997.55859375,961.9140625
1526439183963.2812,-977.05078125,-193.84765625,-287.59765625,-497.0703125,-290.0390625
1526439183967.1875,-1000.0,417.48046875,-26.3671875,-1000.0,-1000.0
1526439183971.0938,-27.83203125,61.5234375,-48.33984375,-55.17578125,-63.4765625
1526439183973.125,984.375,-641.11328125,-320.3125,-788.57421875,852.05078125
1526439183977.0312,-440.91796875,-413.57421875,-374.51171875,118.65234375,73.73046875
1526439183980.9375,-1000.0,308.10546875,-86.9140625,-1000.0,-1000.0
1526439183984.8438,-176.26953125,172.36328125,-16.6015625,-214.84375,-597.16796875
1526439183988.75,-812.98828125,-588.8671875,-328.61328125,-784.66796875,636.23046875
1526439183992.6562,227.5390625,-622.55859375,-457.51953125,288.0859375,552.734375
1526439183996.5625,-1000.0,90.8203125,-179.19921875,-1000.0,-729.98046875
1526439184000.4688,-385.7421875,254.8828125,24.4140625,-483.88671875,-704.58984375
1526439184004.375,-841.30859375,-503.90625,-335.44921875,-896.97265625,414.55078125
1526439184008.2812,360.83984375,-875.48828125,-633.7890625,639.6484375,498.046875
1526439184012.1875,-1000.0,-272.4609375,-467.7734375,-928.22265625,-590.33203125
1526439184016.0938,-702.63671875,155.2734375,-281.73828125,-970.21484375,-1000.0
1526439184018.125,844.7265625,-403.3203125,-470.21484375,470.21484375,-87.40234375
1526439184022.0312,995.60546875,-991.69921875,-681.640625,-805.6640625,559.5703125
1526439184025.9375,-542.96875,-591.30859375,-608.88671875,-150.87890625,-343.26171875
1526439184029.8438,-1000.0,32.2265625,-427.734375,-1000.0,-1000.0
1526439184033.75,276.85546875,-348.6328125,-514.16015625,-16.11328125,-564.453125
1526439184037.6562,-729.98046875,-1000.0,-724.609375,-748.046875,522.94921875
1526439184041.5625,191.89453125,-785.15625,-657.2265625,241.2109375,234.375
1526439184045.4688,-1000.0,-167.96875,-516.6015625,-1000.0,-883.30078125
1526439184049.375,-99.609375,-398.92578125,-653.80859375,-243.65234375,-915.52734375
1526439184053.2812,-737.3046875,-972.16796875,-882.32421875,-778.80859375,136.23046875
1526439184057.1875,508.30078125,-980.46875,-936.5234375,548.33984375,91.796875
1526439184061.0938,-1000.0,-554.6875,-885.25390625,-1000.0,-949.21875
1526439184078.125,-224.609375,-521.97265625,-897.94921875,-339.35546875,-1000.0
1526439184082.0312,-932.6171875,-953.61328125,-968.26171875,-931.640625,-265.13671875
1526439184085.9375,-840.33203125,-1000.0,-971.19140625,-916.50390625,-125.48828125
1526439184089.8438,-73.2421875,-824.70703125,-966.796875,-387.20703125,-928.22265625
1526439184093.75,-279.78515625,-734.86328125,-969.7265625,-672.8515625,-1000.0
1526439184097.6562,-971.19140625,-945.3125,-969.23828125,869.140625,-472.65625
1526439184101.5625,-789.0625,-994.140625,-969.23828125,-775.87890625,65.4296875
1526439184105.4688,139.16015625,-920.41015625,-969.23828125,157.71484375,-759.765625
1526439184109.375,-342.7734375,-807.12890625,-969.23828125,-1000.0,-1000.0
1526439184113.2812,937.98828125,-899.90234375,-969.23828125,264.6484375,-800.29296875
1526439184117.1875,-803.22265625,-987.3046875,-966.796875,-706.54296875,-391.11328125
1526439184121.0938,543.45703125,-964.35546875,-971.19140625,406.25,-636.71875
1526439184123.125,-774.90234375,-697.75390625,-960.9375,-1000.0,-1000.0
1526439184127.0312,295.41015625,-714.35546875,-885.7421875,-213.37890625,-929.19921875
1526439184130.9375,-741.69921875,-974.12109375,-925.29296875,-808.10546875,-311.5234375
1526439184134.8438,751.46484375,-1000.0,-924.8046875,816.89453125,-337.890625
1526439184138.75,-776.3671875,-583.49609375,-656.25,-787.59765625,-989.74609375
1526439184142.6562,-353.515625,-191.89453125,-326.171875,-467.28515625,-985.83984375
1526439184146.5625,-743.65234375,-673.33984375,-313.96484375,-905.76171875,-103.02734375
1526439184150.4688,543.9453125,-896.484375,-398.92578125,973.6328125,456.0546875
1526439184154.375,-851.5625,-155.76171875,-15.625,-410.64453125,-574.70703125
1526439184158.2812,-1000.0,672.36328125,578.61328125,-1000.0,-871.09375
1526439184162.1875,192.3828125,270.99609375,501.953125,234.375,69.82421875
1526439184166.0938,589.84375,-391.11328125,129.8828125,-791.50390625,787.59765625
1526439184168.125,-928.22265625,107.421875,305.17578125,-84.9609375,235.3515625
1526439184172.0312,-1000.0,881.8359375,715.33203125,-1000.0,-880.37109375
1526439184175.9375,-808.10546875,738.28125,742.1875,-236.81640625,-344.23828125
1526439184179.8438,-473.6328125,81.0546875,558.10546875,-821.2890625,928.7109375
1526439184183.75,-895.01953125,204.1015625,567.87109375,186.5234375,823.73046875
1526439184187.6562,-1000.0,866.2109375,842.28515625,-1000.0,-511.23046875
1526439184191.5625,-936.5234375,-939.453125,-979.00390625,-869.62890625,-244.140625
1526439184195.4688,-977.05078125,524.90234375,864.74609375,699.21875,972.65625
1526439184199.375,-969.23828125,338.37890625,788.57421875,322.75390625,-854.00390625
1526439184203.2812,-969.23828125,906.25,965.8203125,-1000.0,154.296875
1526439184207.1875,-969.23828125,-925.78125,-996.58203125,-1000.0,-609.375
1526439184211.0938,-969.23828125,739.74609375,943.359375,27.34375,592.28515625
1526439184213.125,-969.23828125,433.59375,926.7578125,425.29296875,-826.171875
1526439184217.0312,-969.23828125,811.03515625,943.84765625,-932.12890625,184.5703125
1526439184220.9375,-969.23828125,-928.7109375,-993.65234375,-1000.0,-769.53125
1526439184224.8438,-969.23828125,844.7265625,948.2421875,-140.625,291.50390625
1526439184228.75,-969.23828125,349.609375,845.703125,822.265625,-814.94140625
1526439184232.6562,-969.23828125,601.5625,872.55859375,-543.9453125,643.5546875
1526439184236.5625,-969.23828125,-946.77734375,-995.60546875,-1000.0,-502.9296875
1526439184240.4688,-969.23828125,939.94140625,920.41015625,-551.7578125,45.41015625
1526439184244.375,-969.23828125,396.97265625,830.56640625,941.89453125,-875.9765625
1526439184248.2812,-969.23828125,339.84375,705.078125,101.5625,812.98828125
1526439184252.1875,-969.23828125,914.0625,825.68359375,-1000.0,-549.31640625
1526439184256.0938,-969.23828125,-951.171875,992.1875,-947.75390625,-401.85546875
1526439184258.125,-969.23828125,458.984375,740.234375,520.99609375,996.09375
1526439184262.0312,-969.23828125,113.28125,456.0546875,343.26171875,-935.546875
1526439184265.9375,-969.23828125,734.375,630.859375,-1000.0,-178.7109375
1526439184269.8438,-969.23828125,-920.41015625,935.546875,-1000.0,-704.58984375
1526439184273.75,-969.23828125,553.22265625,654.78515625,31.73828125,602.5390625
1526439184277.6562,-984.375,-63.4765625,350.5859375,687.5,-810.546875
1526439184281.5625,-889.16015625,390.625,359.86328125,-791.015625,187.01171875
1526439184285.4688,-1000.0,-965.8203125,703.125,-1000.0,-777.83203125
1526439184289.375,-457.03125,679.6875,696.2890625,-144.53125,359.375
1526439184293.2812,212.40234375,-174.8046875,255.859375,-884.765625,-790.0390625
1526439184297.1875,-849.12109375,4.39453125,83.984375,-91.796875,469.23828125
1526439184301.0938,-1000.0,791.9921875,340.33203125,-1000.0,-918.9453125
1526439184303.125,-665.52734375,658.69140625,317.87109375,-451.66015625,-453.61328125
1526439184307.0312,749.51171875,-293.45703125,-123.53515625,-918.9453125,930.17578125
1526439184310.9375,-107.421875,-411.1328125,-358.88671875,279.78515625,751.953125
1526439184314.8438,-1000.0,442.87109375,-95.703125,-1000.0,-601.07421875
1526439184318.75,-917.96875,645.5078125,73.73046875,-892.578125,-739.74609375
1526439184322.6562,542.96875,-175.29296875,-194.3359375,683.10546875,625.9765625
1526439184326.5625,368.65234375,-633.30078125,-429.19921875,529.78515625,958.0078125
1526439184330.4688,-1000.0,138.18359375,-245.1171875,-980.95703125,-165.52734375
1526439184334.375,-1000.0,653.3203125,-11.23046875,-1000.0,-968.26171875
1526439184338.2812,317.87109375,-113.28125,-392.08984375,109.86328125,27.83203125
1526439184342.1875,804.19921875,-901.3671875,-696.2890625,-912.59765625,-1000.0
1526439184346.0938,-791.015625,-398.4375,-729.4921875,-333.49609375,-28.80859375
1526439184348.125,-1000.0,402.83203125,-529.78515625,-1000.0,-1000.0
1526439184352.0312,-28.80859375,-50.29296875,-563.4765625,-168.45703125,-368.1640625
1526439184355.9375,-785.15625,-962.890625,-860.83984375,-799.31640625,887.20703125
1526439184359.8438,95.21484375,-727.05078125,-967.28515625,226.5625,231.4453125
1526439184363.75,-1000.0,182.12890625,-818.359375,-1000.0,-1000.0
1526439184367.6562,-211.9140625,59.08203125,-689.453125,-261.71875,-640.625
1526439184371.5625,-778.80859375,-842.7734375,-837.890625,-791.9921875,735.83984375
1526439184375.4688,274.4140625,-911.62109375,-954.1015625,354.00390625,631.8359375
1526439184379.375,-1000.0,-96.19140625,-937.01171875,-1000.0,-780.76171875
1526439184383.2812,-297.36328125,125.0,-916.015625,-664.0625,-994.62890625
1526439184387.1875,-856.93359375,-674.8046875,-957.51953125,927.24609375,252.44140625
1526439184391.0938,808.10546875,-1000.0,-972.16796875,851.5625,655.2734375
1526439184393.125,-832.03125,-374.0234375,-963.37890625,-716.30859375,-568.359375
1526439184397.0312,-687.5,244.140625,-919.43359375,-1000.0,-1000.0
1526439184400.9375,871.58203125,-413.57421875,-909.66796875,302.24609375,-129.39453125
1526439184404.8438,-814.453125,-1000.0,-957.51953125,-764.6484375,830.56640625
1526439184408.75,-40.52734375,-600.09765625,-978.02734375,6.34765625,-181.15234375
1526439184412.6562,-1000.0,295.41015625,-875.9765625,-1000.0,-1000.0
1526439184416.5625,183.10546875,-71.2890625,-713.37890625,-131.34765625,-269.53125
1526439184420.4688,-714.35546875,-985.83984375,-830.56640625,-761.23046875,945.3125
1526439184424.375,217.7734375,-781.73828125,-997.55859375,252.9296875,157.71484375
1526439184428.2812,-1000.0,217.28515625,-935.546875,-1000.0,-1000.0
1526439184432.1875,-228.515625,188.4765625,-884.27734375,-244.140625,-784.1796875
1526439184436.0938,-791.015625,-809.5703125,-942.3828125,-801.26953125,420.41015625
1526439184438.125,680.6640625,-956.0546875,-975.5859375,651.85546875,506.34765625
1526439184442.0312,-970.703125,65.4296875,-963.37890625,-994.62890625,-719.7265625
1526439184445.9375,-254.39453125,479.98046875,-964.84375,-511.23046875,-954.58984375
1526439184449.8438,-928.22265625,-491.2109375,-968.75,973.6328125,203.125
1526439184453.75,-835.9375,-1000.0,-969.23828125,-840.8203125,758.30078125
1526439184457.6562,-92.28515625,-295.8984375,-969.23828125,-159.66796875,-381.34765625
1526439184461.5625,-448.2421875,613.28125,-969.23828125,-975.09765625,-1000.0
1526439184465.4688,961.42578125,-266.6015625,-969.23828125,503.90625,-344.23828125
1526439184469.375,-762.6953125,-1000.0,-969.23828125,-731.4453125,482.91015625
1526439184473.2812,152.34375,-617.67578125,-969.23828125,195.80078125,-217.28515625
1526439184477.1875,-652.83203125,348.6328125,-969.23828125,-1000.0,-1000.0
1526439184481.0938,757.8125,-142.08984375,-969.23828125,-56.15234375,-786.62109375
1526439184498.125,-816.40625,-1000.0,-969.23828125,-726.07421875,196.2890625
1526439184502.0312,798.33984375,-902.34375,-969.23828125,437.5,-126.46484375
1526439184505.9375,-582.51953125,-104.00390625,-969.23828125,-1000.0,-1000.0
1526439184509.8438,126.46484375,-145.99609375,-969.23828125,-257.8125,-934.08203125
1526439184513.75,-835.9375,-937.5,-969.23828125,-851.07421875,-106.4453125
1526439184517.6562,-904.296875,-1000.0,-969.23828125,914.0625,46.875
1526439184521.5625,-166.9921875,-547.36328125,-969.23828125,-672.36328125,-840.33203125
1526439184525.4688,-311.5234375,-333.49609375,-969.23828125,-609.86328125,-1000.0
1526439184529.375,-957.03125,-892.08984375,-969.23828125,952.63671875,-512.6953125
1526439184533.2812,-794.921875,-1000.0,-969.7265625,-829.1015625,125.0
1526439184537.1875,59.08203125,-696.77734375,-962.40234375,-89.84375,-642.08984375
1526439184541.0938,-525.87890625,-100.09765625,-980.46875,-1000.0,-1000.0
1526439184543.125,899.90234375,-515.625,-910.64453125,333.984375,-505.859375
1526439184547.0312,-769.53125,-1000.0,-714.84375,-721.6796875,364.2578125
1526439184550.9375,165.52734375,-713.37890625,-787.109375,209.9609375,-341.30859375
1526439184554.8438,-1000.0,153.3203125,-998.53515625,-1000.0,-1000.0
1526439184558.75,232.91015625,-227.5390625,-779.296875,-189.94140625,-732.91015625
1526439184562.6562,-708.984375,-1000.0,-533.69140625,-756.8359375,253.90625
1526439184566.5625,481.4453125,-953.61328125,-788.0859375,451.171875,-127.44140625
1526439184570.4688,-1000.0,-578.61328125,-1000.0,-1000.0,-1000.0
1526439184574.375,-267.08984375,-640.625,-931.640625,-312.98828125,-858.3984375
1526439184578.2812,-856.4453125,-974.609375,-900.87890625,-858.88671875,-163.57421875
1526439184582.1875,970.703125,-1000.0,-955.56640625,871.58203125,-363.28125
1526439184586.0938,-602.05078125,-643.5546875,-978.515625,-723.14453125,-977.05078125
1526439184588.125,-442.87109375,-244.62890625,-917.48046875,-713.8671875,-1000.0
1526439184592.0312,-975.5859375,-738.76953125,-517.578125,831.54296875,-468.75
1526439184595.9375,-819.82421875,-1000.0,-182.6171875,-792.96875,86.42578125
1526439184599.8438,-20.5078125,-608.3984375,-361.328125,85.9375,-654.78515625
1526439184603.75,-887.6953125,106.93359375,-547.8515625,-1000.0,-1000.0
1526439184607.6562,594.23828125,-435.546875,-344.23828125,160.15625,-587.40234375
1526439184611.5625,-735.3515625,-1000.0,-268.06640625,-709.47265625,108.3984375
1526439184615.4688,197.265625,-868.1640625,-628.41796875,218.26171875,-484.375
1526439184619.375,-1000.0,-295.8984375,-825.68359375,-1000.0,-1000.0
1526439184623.2812,-82.51953125,-462.890625,-633.7890625,-244.140625,-886.71875
1526439184627.1875,-729.4921875,-1000.0,-387.20703125,-783.69140625,-129.8828125
1526439184631.0938,459.9609375,-948.73046875,-249.0234375,593.26171875,-202.1484375
1526439184633.125,-1000.0,-195.3125,-304.6875,-1000.0,-967.7734375
1526439184637.0312,-255.859375,124.0234375,-92.7734375,-343.26171875,-1000.0
1526439184640.9375,-863.76953125,-690.91796875,252.9296875,-932.12890625,-104.00390625
1526439184644.8438,969.7265625,-1000.0,232.91015625,-908.69140625,366.2109375
1526439184648.75,-604.4921875,-361.328125,-51.26953125,-325.68359375,-680.17578125
1526439184652.6562,-578.61328125,141.11328125,-199.70703125,-864.74609375,-1000.0
1526439184656.5625,960.44921875,-579.58984375,-160.64453125,686.03515625,-443.84765625
1526439184660.4688,-807.12890625,-1000.0,-216.796875,-763.18359375,380.859375
1526439184664.375,19.53125,-765.625,-417.48046875,160.15625,-254.39453125
1526439184668.2812,-1000.0,-265.13671875,-709.9609375,-1000.0,-1000.0
1526439184672.1875,398.92578125,-571.2890625,-601.5625,-16.6015625,-779.78515625
1526439184676.0938,-713.37890625,-1000.0,-372.0703125,-720.21484375,64.453125
1526439184678.125,199.70703125,-878.41796875,-426.7578125,276.85546875,-296.875
1526439184682.0312,-1000.0,-163.0859375,-525.390625,-1000.0,-1000.0
1526439184685.9375,-111.81640625,-211.9140625,-308.59375,-242.1875,-893.5546875
1526439184689.8438,-767.578125,-944.3359375,-154.78515625,-820.3125,83.984375
1526439184693.75,687.5,-1000.0,-277.83203125,780.76171875,48.828125
1526439184697.6562,-936.5234375,-318.84765625,-398.92578125,-862.79296875,-971.19140625
1526439184701.5625,-270.99609375,-20.5078125,-308.10546875,-407.71484375,-1000.0
1526439184705.4688,-914.55078125,-751.953125,-145.01953125,-966.796875,195.3125
1526439184709.375,-855.46875,-1000.0,-279.78515625,-839.35546875,540.0390625
1526439184713.2812,-217.28515625,-597.65625,-525.390625,-141.11328125,-763.671875
1526439184717.1875,-541.50390625,48.828125,-444.82421875,-835.9375,-1000.0
1526439184721.0938,949.21875,-477.05078125,-235.83984375,684.08203125,-340.33203125
1526439184723.125,-772.94921875,-1000.0,-295.8984375,-745.60546875,340.33203125
1526439184727.0312,110.83984375,-681.15234375,-373.53515625,182.12890625,-337.890625
1526439184730.9375,-844.23828125,218.26171875,-261.71875,-1000.0,-1000.0
1526439184734.8438,550.78125,-98.14453125,-111.328125,68.359375,-676.26953125
1526439184738.75,-730.46875,-982.91015625,-288.57421875,-729.98046875,357.421875
1526439184742.6562,524.90234375,-926.26953125,-462.40234375,595.703125,125.48828125
1526439184746.5625,-962.890625,-130.37109375,-463.37890625,-979.4921875,-946.2890625
1526439184750.4688,34.1796875,-160.64453125,-427.24609375,-270.01953125,-851.5625
1526439184754.375,-846.19140625,-940.91796875,-649.90234375,-876.46484375,113.28125
1526439184758.2812,-912.109375,-1000.0,-884.27734375,-948.73046875,72.265625
1526439184762.1875,-245.60546875,-487.3046875,-864.2578125,-442.87109375,-885.25390625
1526439184766.0938,-317.87109375,-79.1015625,-734.375,-426.26953125,-1000.0
1526439184768.125,-938.4765625,-727.05078125,-701.66015625,-986.328125,-289.0625
1526439184772.0312,-809.5703125,-1000.0,-806.640625,-797.36328125,307.6171875
1526439184775.9375,52.24609375,-553.22265625,-744.62890625,86.9140625,-491.69921875
1526439184779.8438,-271.484375,222.65625,-604.98046875,-746.09375,-1000.0
1526439184783.75,989.2578125,-359.375,-568.359375,688.4765625,-557.12890625
1526439184787.6562,-780.2734375,-1000.0,-720.703125,-742.67578125,476.07421875
1526439184791.5625,271.97265625,-728.515625,-657.71484375,324.21875,88.8671875
1526439184795.4688,-652.83203125,70.80078125,-642.08984375,-1000.0,-938.4765625
1526439184799.375,687.01171875,-289.0625,-798.33984375,-35.15625,-873.53515625
1526439184803.2812,-777.34375,-1000.0,-901.85546875,-735.83984375,88.8671875
1526439184807.1875,676.26953125,-972.65625,-955.56640625,635.7421875,-58.59375
1526439184811.0938,-839.84375,-293.45703125,-951.66015625,-952.1484375,-988.76953125
1526439184828.125,-120.1171875,-176.26953125,-878.41796875,-280.76171875,-1000.0
1526439184832.0312,-831.0546875,-899.4140625,-837.890625,-885.7421875,-131.34765625
1526439184835.9375,-956.0546875,-1000.0,-873.046875,-936.5234375,89.35546875
1526439184839.8438,-403.3203125,-466.796875,-874.0234375,-416.015625,-860.3515625
1526439184843.75,-328.61328125,-12.20703125,-815.91796875,-639.16015625,-1000.0
1526439184847.6562,-930.17578125,-676.26953125,-708.49609375,928.22265625,-253.90625
1526439184851.5625,-833.49609375,-1000.0,-793.9453125,-812.5,389.6484375
1526439184855.4688,-23.4375,-720.21484375,-956.0546875,63.4765625,-629.8828125
1526439184859.375,-857.91015625,-204.1015625,-970.21484375,-1000.0,-1000.0
1526439184863.2812,639.16015625,-589.35546875,-957.03125,131.34765625,-657.71484375
1526439184867.1875,-741.69921875,-1000.0,-962.40234375,-714.35546875,-130.37109375
1526439184871.0938,196.2890625,-842.28515625,-974.12109375,221.6796875,-559.08203125
1526439184873.125,-1000.0,-153.3203125,-940.4296875,-1000.0,-1000.0
1526439184877.0312,-59.5703125,-278.3203125,-759.27734375,-243.1640625,-805.17578125
1526439184880.9375,-721.19140625,-987.79296875,-687.5,-775.87890625,-32.71484375
1526439184884.8438,322.75390625,-957.03125,-794.43359375,516.6015625,-232.91015625
1526439184888.75,-1000.0,-197.265625,-808.10546875,-1000.0,-1000.0
1526439184892.6562,-250.48828125,22.4609375,-614.2578125,-361.328125,-972.65625
1526439184896.5625,-820.3125,-770.01953125,-588.8671875,-903.80859375,-162.109375
1526439184900.4688,771.97265625,-1000.0,-787.109375,974.609375,-17.578125
1526439184904.375,-868.1640625,-465.33203125,-875.0,-540.0390625,-903.3203125
1526439184908.2812,-612.3046875,138.671875,-666.50390625,-868.1640625,-969.23828125
1526439184912.1875,942.3828125,-516.6015625,-615.72265625,675.29296875,-424.8046875
1526439184916.0938,-838.37890625,-1000.0,-801.7578125,-774.90234375,-2.44140625
1526439184918.125,-130.37109375,-635.25390625,-811.03515625,91.30859375,-572.75390625
1526439184922.0312,-1000.0,164.55078125,-737.3046875,-1000.0,-1000.0
1526439184925.9375,293.45703125,-300.29296875,-698.2421875,1.953125,-765.13671875
1526439184929.8438,-721.6796875,-1000.0,-791.9921875,-725.09765625,-47.8515625
1526439184933.75,213.8671875,-821.2890625,-897.4609375,237.79296875,-332.51953125
1526439184937.6562,-1000.0,-5.37109375,-850.5859375,-1000.0,-1000.0
1526439184941.5625,-214.84375,-159.66796875,-738.76953125,-243.1640625,-821.77734375
1526439184945.4688,-756.8359375,-973.6328125,-868.1640625,-799.8046875,-109.375
1526439184949.375,417.48046875,-978.515625,-915.52734375,655.76171875,-10.25390625
1526439184953.2812,-1000.0,-256.34765625,-854.4921875,-987.3046875,-704.58984375
1526439184957.1875,-249.0234375,-29.296875,-881.34765625,-482.91015625,-1000.0
1526439184961.0938,-850.5859375,-778.3203125,-861.328125,-983.3984375,-399.90234375
1526439184963.125,900.390625,-1000.0,-854.00390625,-894.53125,-25.87890625
1526439184967.0312,-692.3828125,-483.88671875,-874.0234375,-304.19921875,-724.12109375
1526439184970.9375,-684.5703125,197.265625,-825.68359375,-961.9140625,-1000.0
1526439184974.8438,895.5078125,-438.96484375,-706.54296875,544.43359375,-521.484375
1526439184978.75,-815.4296875,-1000.0,-705.56640625,-743.1640625,268.5546875
1526439184982.6562,-8.30078125,-640.625,-760.25390625,186.03515625,-347.16796875
1526439184986.5625,-1000.0,245.1171875,-720.703125,-1000.0,-1000.0
1526439184990.4688,148.4375,-143.06640625,-593.75,-47.8515625,-650.390625
1526439184994.375,-714.84375,-1000.0,-559.5703125,-722.65625,520.5078125
1526439184998.2812,220.703125,-865.234375,-768.06640625,312.5,60.546875
1526439185002.1875,-1000.0,-30.2734375,-960.9375,-1000.0,-1000.0
1526439185006.0938,-246.09375,-56.15234375,-800.78125,-249.51171875,-837.40234375
1526439185008.125,-774.4140625,-886.23046875,-758.7890625,-816.40625,41.9921875
1526439185012.0312,500.0,-1000.0,-905.2734375,752.44140625,-37.59765625
1526439185015.9375,-1000.0,-285.64453125,-960.44921875,-885.7421875,-922.8515625
1526439185019.8438,-365.234375,119.140625,-837.890625,-548.33984375,-929.6875
1526439185023.75,-903.80859375,-652.83203125,-764.6484375,973.6328125,-223.14453125
1526439185027.6562,972.16796875,-1000.0,-832.03125,-848.14453125,225.09765625
1526439185031.5625,-551.26953125,-537.109375,-916.9921875,-144.04296875,-583.0078125
1526439185035.4688,-888.671875,180.17578125,-887.6953125,-1000.0,-980.95703125
1526439185039.375,663.0859375,-396.484375,-736.328125,375.48828125,-307.12890625
1526439185043.2812,-771.97265625,-1000.0,-849.609375,-728.02734375,171.875
1526439185047.1875,62.01171875,-732.91015625,-941.89453125,208.0078125,-379.8828125
1526439185051.0938,-1000.0,128.41796875,-905.2734375,-1000.0,-1000.0
1526439185053.125,20.99609375,-132.8125,-745.60546875,-186.5234375,-791.9921875
1526439185057.0312,-723.14453125,-1000.0,-721.6796875,-752.44140625,17.578125
1526439185060.9375,230.95703125,-865.234375,-825.1953125,381.8359375,-198.2421875
1526439185064.8438,-1000.0,71.77734375,-790.0390625,-1000.0,-1000.0
1526439185068.75,-245.60546875,153.80859375,-631.8359375,-263.18359375,-937.01171875
1526439185072.6562,-785.64453125,-774.4140625,-541.9921875,-858.3984375,96.19140625
1526439185076.5625,572.265625,-1000.0,-665.0390625,893.5546875,314.94140625
1526439185080.4688,-1000.0,-249.51171875,-726.07421875,-686.5234375,-709.47265625
1526439185084.375,-480.46875,222.16796875,-719.23828125,-715.33203125,-1000.0
1526439185088.2812,-978.515625,-614.2578125,-789.55078125,854.98046875,-449.21875
1526439185092.1875,-925.78125,-1000.0,-820.80078125,-810.05859375,104.4921875
1526439185096.0938,-362.79296875,-572.265625,-895.01953125,-40.52734375,-525.87890625
1526439185098.125,-1000.0,178.7109375,-877.9296875,-1000.0,-1000.0
1526439185102.0312,479.98046875,-348.6328125,-735.83984375,197.265625,-652.34375
1526439185105.9375,-743.65234375,-1000.0,-692.3828125,-718.26171875,150.87890625
1526439185109.8438,167.96875,-761.23046875,-791.015625,219.23828125,-245.1171875
1526439185113.75,-1000.0,113.76953125,-870.1171875,-1000.0,-1000.0
1526439185117.6562,-107.421875,-125.48828125,-699.21875,-237.79296875,-790.0390625
1526439185121.5625,-736.328125,-994.62890625,-580.078125,-773.92578125,346.19140625
1526439185125.4688,242.67578125,-921.875,-603.515625,507.8125,265.13671875
1526439185129.375,-1000.0,-107.91015625,-790.52734375,-1000.0,-937.5
1526439185133.2812,-242.1875,16.6015625,-760.7421875,-362.3046875,-1000.0
1526439185137.1875,-800.78125,-811.03515625,-625.0,-899.90234375,-211.42578125
1526439185141.0938,656.25,-1000.0,-685.05859375,961.9140625,-53.22265625
1526439185143.125,-991.2109375,-389.6484375,-794.43359375,-576.171875,-877.44140625
1526439185147.0312,-596.19140625,224.609375,-706.0546875,-828.61328125,-1000.0
1526439185150.9375,952.63671875,-500.0,-536.1328125,718.75,-431.640625
1526439185154.8438,-872.55859375,-1000.0,-539.55078125,-774.4140625,148.4375
1526439185158.75,-229.98046875,-578.61328125,-626.953125,95.703125,-499.0234375
1526439185162.6562,-1000.0,308.59375,-583.49609375,-1000.0,-1000.0
1526439185166.5625,272.4609375,-176.26953125,-320.80078125,93.75,-377.44140625
1526439185170.4688,-727.5390625,-1000.0,-374.0234375,-713.37890625,373.53515625
1526439185174.375,211.9140625,-815.91796875,-712.890625,223.14453125,-419.43359375
1526439185178.2812,-1000.0,58.59375,-770.01953125,-1000.0,-1000.0
1526439185182.1875,-229.4921875,-112.79296875,-605.46875,-245.60546875,-889.6484375
1526439185186.0938,-764.16015625,-974.609375,-642.578125,-784.66796875,-205.56640625
1526439185203.125,311.03515625,-980.46875,-779.296875,567.3828125,-260.25390625
1526439185207.0312,-1000.0,-178.7109375,-778.3203125,-1000.0,-970.703125
1526439185210.9375,-297.36328125,106.4453125,-616.2109375,-442.87109375,-1000.0
1526439185214.8438,-830.078125,-735.3515625,-553.7109375,-967.7734375,-340.8203125
1526439185218.75,723.14453125,-1000.0,-616.2109375,-923.828125,-20.5078125
1526439185222.6562,-895.99609375,-378.90625,-567.3828125,-353.515625,-731.93359375
1526439185226.5625,-768.5546875,343.75,-418.45703125,-962.40234375,-1000.0
1526439185230.4688,798.828125,-428.22265625,-469.23828125,552.24609375,-588.8671875
1526439185234.375,-841.796875,-1000.0,-610.83984375,-754.39453125,-7.8125
1526439185238.2812,-170.41015625,-642.578125,-664.55078125,143.5546875,-523.92578125
1526439185242.1875,-1000.0,208.0078125,-633.7890625,-1000.0,-1000.0
1526439185246.0938,45.41015625,-222.65625,-510.25390625,-97.16796875,-770.99609375
1526439185248.125,-739.2578125,-1000.0,-476.5625,-738.28125,26.85546875
1526439185252.0312,225.5859375,-825.68359375,-548.33984375,264.6484375,-228.02734375
1526439185255.9375,-1000.0,76.171875,-547.36328125,-1000.0,-1000.0
1526439185259.8438,-232.421875,37.59765625,-372.55859375,-245.1171875,-899.90234375
1526439185263.75,-778.80859375,-884.27734375,-332.03125,-796.875,-50.29296875
1526439185267.6562,270.99609375,-999.0234375,-414.0625,624.0234375,130.37109375
1526439185271.5625,-1000.0,-199.70703125,-452.1484375,-991.69921875,-768.06640625
1526439185275.4688,-560.546875,150.390625,-412.59765625,-646.484375,-1000.0
1526439185279.375,-923.33984375,-666.9921875,-366.69921875,925.78125,-242.67578125
1526439185283.2812,575.68359375,-1000.0,-260.25390625,-935.05859375,541.50390625
1526439185287.1875,-928.22265625,-513.18359375,-352.05078125,-340.8203125,-354.98046875
1526439185291.0938,-1000.0,159.66796875,-432.6171875,-1000.0,-1000.0
1526439185293.125,250.9765625,-428.22265625,-252.9296875,190.4296875,-411.1328125
1526439185297.0312,-938.96484375,-1000.0,-229.98046875,-747.55859375,264.6484375
1526439185300.9375,-413.57421875,-698.2421875,-347.65625,117.67578125,-436.03515625
1526439185304.8438,-1000.0,109.375,-321.2890625,-1000.0,-1000.0
1526439185308.75,-166.50390625,-218.75,-138.671875,-213.37890625,-648.92578125
