timestamp,TP9,AF7,AF8,TP10,Right AUX

1510176727367.665,-68.359375,-970.21484375,-2.44140625,-27.83203125,-22.4609375
1510176727371.5713,-89.35546875,-970.21484375,29.78515625,148.4375,8.30078125
1510176727375.4775,-92.28515625,-970.21484375,3.90625,26.3671875,-62.01171875
1510176727379.3838,-105.95703125,-970.21484375,-19.53125,-163.57421875,-66.89453125
1510176727383.29,-133.30078125,-970.21484375,-4.39453125,-105.46875,-2.9296875
1510176727387.1963,-111.328125,-970.21484375,14.16015625,123.046875,3.90625
1510176727391.1025,-53.22265625,-970.21484375,8.30078125,105.95703125,40.52734375
1510176727395.0088,-23.4375,-970.21484375,-24.90234375,-78.61328125,38.57421875
1510176727398.915,-21.484375,-970.21484375,-37.109375,-76.171875,23.4375
1510176727402.8213,-41.9921875,-970.21484375,6.8359375,123.046875,77.1484375
1510176727406.7275,-35.15625,-970.21484375,20.01953125,162.109375,41.015625
1510176727410.6338,-37.109375,-970.21484375,-24.90234375,-12.20703125,-21.484375
1510176727412.6973,-68.359375,-970.21484375,-40.0390625,-67.3828125,-1.953125
1510176727416.6035,-31.73828125,-970.21484375,-11.23046875,109.86328125,-32.71484375
1510176727420.5098,18.06640625,-970.21484375,4.39453125,224.609375,-23.92578125
1510176727424.416,32.71484375,-969.7265625,-30.76171875,61.03515625,25.390625
1510176727428.3223,19.53125,-970.21484375,-56.15234375,-68.84765625,-50.29296875
1510176727432.2285,0.9765625,-971.19140625,-29.78515625,86.42578125,-31.25
1510176727436.1348,9.765625,-960.44921875,8.7890625,273.4375,63.4765625
1510176727440.041,17.578125,-963.37890625,-20.01953125,162.59765625,15.13671875
1510176727443.9473,-2.9296875,-970.703125,-58.10546875,-13.671875,-24.90234375
1510176727447.8535,-12.20703125,-974.609375,-31.25,37.59765625,12.20703125
1510176727451.7598,10.7421875,-946.77734375,2.9296875,230.46875,24.90234375
1510176727455.666,24.4140625,-942.87109375,-7.8125,229.00390625,-34.66796875
1510176727457.7295,42.96875,-971.19140625,-33.69140625,50.78125,-18.06640625
1510176727461.6357,56.15234375,-978.02734375,-30.2734375,14.16015625,6.8359375
1510176727465.542,46.875,-939.453125,2.44140625,212.40234375,-13.18359375
1510176727469.4482,35.15625,-926.7578125,11.23046875,304.19921875,0.48828125
1510176727473.3545,15.625,-974.12109375,-18.5546875,127.44140625,-5.37109375
1510176727477.2607,27.34375,-972.16796875,-30.76171875,4.8828125,26.3671875
1510176727481.167,19.53125,-961.42578125,-3.90625,158.69140625,37.109375
1510176727485.0732,8.7890625,-959.9609375,8.30078125,303.22265625,32.2265625
1510176727488.9795,43.45703125,-971.19140625,-9.765625,154.296875,9.27734375
1510176727492.8857,43.9453125,-970.21484375,-8.7890625,0.9765625,10.25390625
1510176727496.792,35.15625,-969.7265625,14.16015625,108.3984375,71.77734375
1510176727500.6982,10.25390625,-970.21484375,36.62109375,283.69140625,84.47265625
1510176727502.2622,-3.41796875,-970.703125,30.76171875,174.31640625,-15.13671875
1510176727506.1685,-22.94921875,-967.28515625,15.625,-32.71484375,-28.80859375
1510176727510.0747,-37.109375,-977.05078125,16.6015625,-3.41796875,28.80859375
1510176727513.981,-36.62109375,-948.2421875,41.50390625,180.17578125,22.4609375
1510176727517.8872,-32.2265625,-928.7109375,53.22265625,164.55078125,47.8515625
1510176727521.7935,-43.9453125,-965.8203125,27.83203125,-37.109375,68.359375
1510176727525.6997,-79.58984375,-979.4921875,14.6484375,-95.703125,79.58984375
1510176727529.606,-78.61328125,-949.70703125,39.0625,97.16796875,91.30859375
1510176727533.5122,-32.71484375,-876.953125,60.05859375,189.453125,56.640625
1510176727537.4185,-8.7890625,-932.6171875,22.94921875,16.6015625,1.953125
1510176727541.3247,-20.01953125,-979.98046875,-11.71875,-98.6328125,-28.80859375
1510176727545.231,-9.27734375,-970.21484375,9.27734375,49.31640625,-10.7421875
1510176727547.3127,7.8125,-871.58203125,31.73828125,221.19140625,-35.15625
1510176727551.219,22.94921875,-877.44140625,4.8828125,121.58203125,1.953125
1510176727555.1252,23.92578125,-977.5390625,-23.92578125,-34.66796875,26.85546875
1510176727559.0315,29.78515625,-986.328125,-10.25390625,47.36328125,-5.37109375
1510176727562.9377,57.12890625,-822.75390625,19.04296875,250.9765625,23.4375
1510176727566.844,62.01171875,-838.8671875,-2.44140625,211.9140625,38.0859375
1510176727570.7502,41.50390625,-980.46875,-47.8515625,24.4140625,0.0
1510176727574.6565,23.92578125,-995.60546875,-43.9453125,6.34765625,-11.23046875
1510176727578.5627,60.05859375,-850.5859375,1.953125,206.0546875,45.8984375
1510176727582.469,111.328125,-744.140625,-1.46484375,274.4140625,79.1015625
1510176727586.3752,102.5390625,-951.171875,-43.45703125,84.9609375,18.5546875
1510176727590.2815,88.37890625,-993.65234375,-48.33984375,-0.9765625,-12.6953125
1510176727607.356,73.73046875,-928.22265625,-19.04296875,180.6640625,-45.8984375
1510176727611.2622,81.54296875,-870.1171875,-4.39453125,285.64453125,0.0
1510176727615.1685,80.078125,-955.078125,-30.76171875,113.76953125,7.32421875
1510176727619.0747,60.546875,-979.4921875,-47.36328125,-22.4609375,-53.22265625
1510176727622.981,84.9609375,-964.35546875,-25.390625,99.12109375,-34.1796875
1510176727626.8872,78.61328125,-971.6796875,-8.7890625,252.44140625,46.38671875
1510176727630.7935,69.3359375,-970.21484375,-31.73828125,129.8828125,63.4765625
1510176727634.6997,104.00390625,-969.7265625,-50.29296875,-17.578125,24.90234375
1510176727638.606,122.0703125,-971.19140625,-34.66796875,59.08203125,-7.32421875
1510176727642.5122,90.8203125,-968.75,3.41796875,237.3046875,-10.7421875
1510176727646.4185,66.40625,-962.890625,4.39453125,199.70703125,29.78515625
1510176727650.3247,82.51953125,-966.30859375,-31.73828125,10.25390625,-32.2265625
1510176727652.3867,87.890625,-976.5625,-34.1796875,-18.5546875,-59.5703125
1510176727656.293,60.05859375,-953.61328125,3.41796875,192.87109375,45.8984375
1510176727660.1992,25.87890625,-936.5234375,11.71875,240.234375,27.34375
1510176727664.1055,49.8046875,-970.703125,-22.94921875,0.48828125,1.46484375
1510176727668.0117,75.1953125,-971.6796875,-46.875,-84.47265625,0.0
1510176727671.918,89.84375,-968.75,-18.06640625,113.76953125,-13.18359375
1510176727675.8242,90.8203125,-970.21484375,12.20703125,226.07421875,39.55078125
1510176727679.7305,71.2890625,-970.21484375,-9.765625,55.17578125,34.1796875
1510176727683.6367,80.56640625,-970.21484375,-35.15625,-70.80078125,-28.3203125
1510176727687.543,92.7734375,-970.21484375,-26.3671875,56.640625,-29.78515625
1510176727691.4492,99.12109375,-969.7265625,5.37109375,241.69921875,4.8828125
1510176727695.3555,86.9140625,-970.21484375,-3.41796875,138.18359375,47.8515625
1510176727712.4297,57.12890625,-970.21484375,-39.0625,-52.24609375,53.22265625
1510176727716.336,37.109375,-970.21484375,-30.76171875,-8.30078125,33.69140625
1510176727720.2422,31.25,-970.21484375,9.765625,170.41015625,43.45703125
1510176727724.1484,66.89453125,-970.21484375,7.8125,161.62109375,70.80078125
1510176727728.0547,87.890625,-970.21484375,-41.50390625,-22.94921875,41.50390625
1510176727731.961,79.58984375,-970.21484375,-52.24609375,-64.453125,-20.01953125
1510176727735.8672,84.9609375,-970.21484375,-5.859375,131.8359375,54.6875
1510176727739.7734,82.51953125,-970.21484375,7.8125,207.51953125,57.6171875
1510176727743.6797,87.890625,-970.21484375,-37.59765625,11.23046875,1.46484375
1510176727747.586,83.49609375,-970.21484375,-49.31640625,-94.23828125,9.27734375
1510176727751.4922,14.6484375,-970.21484375,-2.9296875,75.1953125,-7.8125
1510176727755.3984,0.0,-970.21484375,14.6484375,228.02734375,18.06640625
1510176727742.4497,64.453125,-970.21484375,-17.578125,89.35546875,17.578125
1510176727746.356,89.84375,-970.21484375,-32.2265625,-84.47265625,-12.20703125
1510176727750.2622,73.2421875,-970.21484375,-8.7890625,25.87890625,7.32421875
1510176727754.1685,69.3359375,-970.21484375,18.5546875,232.421875,54.19921875
1510176727758.0747,78.125,-970.21484375,-1.46484375,146.484375,16.6015625
1510176727761.981,60.546875,-970.21484375,-35.15625,-44.921875,-32.71484375
1510176727765.8872,42.48046875,-970.21484375,-20.99609375,-23.4375,-29.78515625
1510176727769.7935,47.8515625,-970.21484375,13.671875,186.03515625,-31.73828125
1510176727773.6997,62.01171875,-970.21484375,12.20703125,208.49609375,-41.9921875
1510176727777.606,67.87109375,-970.21484375,-13.671875,15.13671875,-51.26953125
1510176727781.5122,47.36328125,-970.21484375,-18.06640625,-42.48046875,-41.015625
1510176727785.4185,25.87890625,-970.21484375,15.625,147.4609375,12.6953125
1510176727787.4849,34.66796875,-970.21484375,19.53125,234.375,35.64453125
1510176727791.391,39.55078125,-970.21484375,-2.44140625,34.66796875,5.859375
1510176727795.2974,59.5703125,-970.21484375,-16.11328125,-90.8203125,15.625
1510176727799.2036,65.4296875,-970.21484375,-6.8359375,59.5703125,-18.06640625
1510176727803.1099,40.0390625,-970.21484375,23.4375,206.0546875,-45.8984375
1510176727807.016,36.62109375,-970.21484375,2.9296875,78.125,41.015625
1510176727810.9224,46.875,-970.21484375,-27.83203125,-72.75390625,5.859375
1510176727814.8286,41.9921875,-970.21484375,-19.53125,2.44140625,-43.45703125
1510176727818.7349,20.99609375,-970.21484375,11.71875,195.80078125,-35.64453125
1510176727822.641,41.015625,-970.21484375,22.4609375,146.97265625,-12.6953125
1510176727826.5474,45.41015625,-970.21484375,-7.32421875,-27.34375,-7.8125
1510176727830.4536,22.94921875,-970.21484375,-15.13671875,-37.59765625,-17.08984375
1510176727832.5134,33.203125,-970.21484375,18.06640625,155.2734375,-0.9765625
1510176727836.4197,49.31640625,-970.21484375,24.90234375,209.9609375,-2.9296875
1510176727840.326,48.828125,-970.21484375,-11.71875,2.9296875,-4.39453125
1510176727844.2322,43.9453125,-970.21484375,-22.94921875,-67.87109375,-20.01953125
1510176727848.1384,37.109375,-970.21484375,9.765625,120.60546875,-11.23046875
1510176727852.0447,24.90234375,-970.21484375,23.92578125,239.2578125,-16.6015625
1510176727855.951,16.11328125,-970.21484375,-0.48828125,81.0546875,-2.44140625
1510176727859.8572,20.01953125,-970.21484375,-29.78515625,-59.5703125,12.6953125
1510176727863.7634,41.50390625,-970.21484375,-2.9296875,79.1015625,20.5078125
1510176727867.6697,54.6875,-970.21484375,34.1796875,256.8359375,2.44140625
1510176727871.576,46.875,-969.7265625,1.46484375,131.34765625,-13.671875
1510176727875.4822,31.25,-970.21484375,-27.34375,-57.12890625,-20.99609375
1510176727877.5662,39.0625,-970.703125,-9.27734375,4.39453125,-55.17578125
1510176727881.4724,41.9921875,-964.84375,21.97265625,205.56640625,0.0
1510176727885.3787,19.53125,-966.796875,10.7421875,193.359375,22.94921875
1510176727889.285,-4.39453125,-971.19140625,-18.06640625,11.71875,9.27734375
1510176727893.1912,-5.859375,-969.7265625,-16.11328125,-11.71875,16.11328125
1510176727897.0974,32.2265625,-970.21484375,8.30078125,183.59375,-22.94921875
1510176727901.0037,53.7109375,-970.703125,12.20703125,233.3984375,-21.97265625
1510176727904.91,65.91796875,-967.28515625,-15.625,38.57421875,-31.73828125
1510176727908.8162,56.640625,-977.05078125,-22.4609375,-71.2890625,-65.91796875
1510176727912.7224,48.828125,-950.1953125,8.30078125,103.515625,28.3203125
1510176727916.6287,30.76171875,-928.22265625,28.3203125,265.625,75.68359375
1510176727920.535,14.16015625,-970.21484375,-2.44140625,100.5859375,1.953125
1510176727922.58,9.765625,-972.16796875,-16.11328125,-54.6875,-16.11328125
1510176727926.4863,11.23046875,-968.26171875,10.7421875,57.6171875,60.05859375
1510176727930.3926,42.96875,-970.21484375,24.90234375,243.1640625,47.8515625
1510176727934.2988,26.85546875,-970.21484375,7.32421875,163.0859375,4.8828125
1510176727938.205,20.01953125,-970.21484375,-24.90234375,-20.01953125,19.53125
1510176727942.1113,29.78515625,-970.21484375,-26.3671875,20.5078125,10.25390625
1510176727946.0176,20.01953125,-970.21484375,2.44140625,226.07421875,17.578125
1510176727949.9238,35.15625,-970.703125,8.7890625,210.44921875,20.01953125
1510176727953.83,43.45703125,-967.28515625,-8.30078125,-0.9765625,-9.27734375
1510176727957.7363,9.765625,-976.07421875,-21.97265625,-47.36328125,-12.20703125
1510176727961.6426,-4.39453125,-952.63671875,6.8359375,148.92578125,27.34375
1510176727965.5488,28.3203125,-930.17578125,20.01953125,242.1875,25.87890625
1510176727997.6304,35.15625,-966.30859375,-11.23046875,83.49609375,-6.8359375
1510176728001.5366,16.6015625,-972.65625,-20.5078125,-23.92578125,7.32421875
1510176728005.4429,41.015625,-973.6328125,11.71875,119.62890625,36.62109375
1510176728009.349,60.546875,-897.94921875,40.0390625,270.99609375,40.52734375
1510176728013.2554,49.8046875,-916.9921875,15.13671875,109.375,48.33984375
1510176728017.1616,49.8046875,-979.4921875,-21.97265625,-61.5234375,-1.953125
1510176728021.0679,36.62109375,-973.14453125,-11.71875,45.8984375,29.78515625
1510176728024.974,43.9453125,-939.453125,25.390625,231.4453125,16.11328125
1510176728028.8804,50.78125,-932.6171875,18.5546875,166.9921875,-3.41796875
1510176728032.7866,-6.8359375,-973.14453125,-12.20703125,-30.76171875,8.7890625
1510176728036.6929,-5.37109375,-973.14453125,-16.11328125,-20.5078125,-13.18359375
1510176728040.599,26.3671875,-960.9375,19.04296875,190.91796875,-9.27734375
1510176728027.6519,11.23046875,-942.87109375,26.3671875,219.23828125,13.671875
1510176728031.558,26.3671875,-967.28515625,-9.27734375,25.87890625,2.44140625
1510176728035.4644,32.71484375,-972.65625,-18.5546875,-54.19921875,10.25390625
1510176728039.3706,33.203125,-968.75,12.20703125,115.72265625,-5.37109375
1510176728043.2769,44.921875,-969.7265625,26.3671875,242.1875,-11.71875
1510176728047.183,38.57421875,-969.7265625,-7.32421875,62.98828125,28.3203125
1510176728051.0894,6.34765625,-970.21484375,-24.4140625,-93.75,31.25
1510176728054.9956,-13.18359375,-970.21484375,5.859375,55.17578125,45.8984375
1510176728058.9019,16.6015625,-964.84375,22.4609375,210.9375,35.15625
1510176728062.808,36.62109375,-967.28515625,-2.44140625,81.0546875,-3.41796875
1510176728066.7144,31.73828125,-971.19140625,-17.578125,-71.2890625,15.625
1510176728070.6206,18.5546875,-969.7265625,-3.90625,21.97265625,9.27734375
1510176728072.6836,19.53125,-970.21484375,23.4375,222.65625,0.48828125
1510176728076.5898,9.27734375,-970.21484375,5.859375,147.94921875,-27.34375
1510176728080.496,17.08984375,-970.21484375,-11.23046875,-56.15234375,-52.24609375
1510176728084.4023,23.4375,-970.21484375,1.46484375,-46.38671875,-14.6484375
1510176728088.3086,2.44140625,-970.21484375,25.390625,153.3203125,-8.7890625
1510176728092.2148,-23.92578125,-970.21484375,30.2734375,205.078125,13.671875
1510176728096.121,-30.76171875,-970.21484375,3.90625,12.6953125,3.90625
1510176728100.0273,-10.7421875,-970.21484375,-3.90625,-79.1015625,-14.16015625
1510176728103.9336,22.94921875,-970.21484375,15.625,107.421875,36.1328125
1510176728107.8398,41.9921875,-970.21484375,23.4375,219.23828125,23.92578125
1510176728111.746,14.16015625,-970.21484375,11.71875,45.8984375,-23.4375
1510176728115.6523,12.6953125,-970.21484375,-7.8125,-74.21875,-3.90625
1510176728117.7175,37.109375,-970.21484375,5.859375,55.17578125,40.0390625
1510176728121.6238,27.83203125,-970.21484375,33.69140625,226.07421875,27.34375
1510176728125.53,-1.46484375,-970.21484375,15.625,112.79296875,-12.6953125
1510176728129.4363,-9.27734375,-970.21484375,-15.625,-67.3828125,18.06640625
1510176728133.3425,-6.8359375,-970.21484375,-5.859375,-8.7890625,10.7421875
1510176728137.2488,-29.296875,-970.21484375,20.01953125,188.96484375,-29.78515625
1510176728141.155,-17.578125,-970.21484375,16.11328125,167.96875,-33.203125
1510176728145.0613,17.578125,-968.75,-7.32421875,-22.4609375,-11.23046875
1510176728148.9675,12.6953125,-973.14453125,-13.18359375,-59.5703125,32.2265625
1510176728152.8738,32.2265625,-960.9375,20.5078125,143.5546875,40.52734375
1510176728156.78,43.9453125,-951.171875,35.64453125,210.9375,17.08984375
1510176728160.6863,18.06640625,-970.21484375,-2.9296875,10.25390625,4.39453125
1510176728162.7488,-5.37109375,-970.703125,-18.5546875,-85.44921875,-23.4375
1510176728166.655,-9.27734375,-969.23828125,17.578125,93.75,11.23046875
1510176728170.5613,-5.859375,-970.21484375,33.203125,242.1875,-1.46484375
1510176728174.4675,7.8125,-970.21484375,-2.44140625,62.98828125,-67.87109375
1510176728178.3738,15.625,-970.21484375,-24.90234375,-102.5390625,-32.71484375
1510176728182.28,10.25390625,-970.21484375,-3.90625,36.62109375,19.04296875
1510176728186.1863,40.0390625,-970.21484375,23.4375,226.5625,29.296875
1510176728190.0925,40.52734375,-970.21484375,-1.46484375,130.859375,4.39453125
1510176728193.9988,-6.8359375,-967.28515625,-28.80859375,-55.6640625,-7.32421875
1510176728197.905,10.7421875,-979.00390625,-3.41796875,-14.6484375,0.9765625
1510176728201.8113,31.73828125,-931.15234375,29.78515625,212.890625,49.8046875
1510176728205.7175,28.3203125,-918.9453125,19.53125,203.61328125,34.66796875
1510176728207.2793,22.94921875,-972.16796875,-15.13671875,-19.04296875,-67.87109375
1510176728211.1855,-6.34765625,-979.00390625,-14.16015625,-66.40625,-46.875
1510176728215.0918,-5.859375,-932.6171875,21.484375,122.55859375,83.0078125
1510176728218.998,36.62109375,-921.875,21.97265625,216.30859375,40.52734375
1510176728222.9043,18.06640625,-976.07421875,-0.9765625,41.9921875,-14.6484375
1510176728226.8105,-10.25390625,-969.7265625,-15.13671875,-75.68359375,24.90234375
1510176728230.7168,5.859375,-969.23828125,-6.8359375,80.56640625,1.953125
1510176728234.623,25.87890625,-970.21484375,18.06640625,225.5859375,0.9765625
1510176728238.5293,26.85546875,-970.21484375,4.8828125,80.078125,40.52734375
1510176728242.4355,-17.08984375,-970.21484375,-15.13671875,-67.87109375,13.671875
1510176728246.3418,-9.765625,-970.21484375,-5.859375,39.55078125,14.6484375
1510176728250.248,39.0625,-970.21484375,14.6484375,218.26171875,7.8125
1510176728252.3127,47.8515625,-970.21484375,11.23046875,144.53125,-14.6484375
1510176728256.219,34.1796875,-969.7265625,-11.23046875,-34.66796875,9.765625
1510176728260.1252,21.97265625,-970.703125,-13.671875,-33.203125,46.875
1510176728264.0315,29.296875,-967.28515625,10.7421875,176.7578125,57.6171875
1510176728267.9377,40.0390625,-967.7734375,17.578125,229.4921875,-14.6484375
1510176728271.844,-7.32421875,-966.30859375,-8.30078125,21.97265625,-21.484375
1510176728275.7502,-31.73828125,-977.5390625,-22.94921875,-83.49609375,24.90234375
1510176728279.6565,2.44140625,-953.61328125,9.27734375,88.37890625,-1.46484375
1510176728283.5627,4.8828125,-866.69921875,35.15625,215.33203125,-4.8828125
1510176728287.469,-10.7421875,-923.33984375,5.859375,35.15625,-10.7421875
1510176728291.3752,13.18359375,-984.375,-18.5546875,-92.7734375,-13.18359375
1510176728295.2815,20.99609375,-965.33203125,8.30078125,59.08203125,23.92578125
1510176728297.343,18.5546875,-887.20703125,29.78515625,221.6796875,42.96875
1510176728301.2493,28.3203125,-919.921875,0.9765625,110.3515625,13.671875
1510176728305.1555,3.41796875,-982.421875,-27.34375,-59.08203125,-6.8359375
1510176728309.0618,-5.859375,-966.30859375,-11.71875,10.7421875,-8.7890625
1510176728312.968,-15.13671875,-967.7734375,19.53125,223.14453125,-10.7421875
1510176728316.8743,-22.4609375,-967.7734375,4.8828125,170.8984375,-24.4140625
1510176728320.7805,9.27734375,-970.703125,-32.71484375,-29.78515625,-22.4609375
1510176728324.6868,35.15625,-970.21484375,-24.90234375,-45.8984375,19.53125
1510176728328.593,40.52734375,-970.21484375,15.13671875,153.80859375,20.99609375
1510176728332.4993,51.26953125,-970.21484375,10.25390625,218.26171875,4.39453125
1510176728336.4055,39.55078125,-970.21484375,-28.3203125,12.6953125,-33.203125
1510176728340.3118,41.50390625,-970.21484375,-38.0859375,-90.33203125,-27.34375
1510176728342.8774,41.9921875,-970.21484375,-10.25390625,97.16796875,5.37109375
1510176728346.7837,8.30078125,-970.21484375,12.6953125,233.3984375,21.97265625
1510176728350.69,0.0,-970.21484375,-14.6484375,57.12890625,30.76171875
1510176728354.5962,2.44140625,-970.21484375,-38.57421875,-93.75,11.23046875
1510176728358.5024,5.859375,-970.21484375,-10.25390625,44.921875,12.6953125
1510176728362.4087,7.8125,-970.21484375,13.18359375,235.83984375,18.5546875
1510176728366.315,5.859375,-970.21484375,-2.44140625,119.62890625,-24.4140625
1510176728370.2212,0.48828125,-970.21484375,-4.8828125,-59.5703125,41.9921875
1510176728374.1274,16.11328125,-970.21484375,7.32421875,0.9765625,41.50390625
1510176728378.0337,17.08984375,-970.21484375,31.25,200.1953125,-31.73828125
1510176728381.94,-8.30078125,-970.21484375,34.66796875,190.4296875,18.06640625
1510176728385.8462,-3.90625,-968.26171875,7.32421875,-6.34765625,75.68359375
1510176728402.4375,14.6484375,-973.14453125,0.0,-57.12890625,41.50390625
1510176728406.3438,39.0625,-963.8671875,24.4140625,151.3671875,13.18359375
1510176728410.25,41.50390625,-931.640625,26.85546875,237.3046875,47.8515625
1510176728414.1562,30.2734375,-955.56640625,-0.9765625,43.45703125,52.24609375
1510176728418.0625,25.87890625,-975.09765625,-18.5546875,-83.0078125,2.44140625
1510176728421.9688,57.12890625,-967.28515625,3.90625,86.9140625,10.25390625
1510176728425.875,64.453125,-969.7265625,31.25,248.53515625,-6.8359375
1510176728429.7812,14.16015625,-968.75,17.578125,69.82421875,-7.32421875
1510176728433.6875,-5.859375,-966.796875,-8.30078125,-75.1953125,50.78125
1510176728437.5938,8.30078125,-985.3515625,-2.44140625,73.2421875,35.15625
1510176728441.5,57.12890625,-864.2578125,34.66796875,247.0703125,24.4140625
1510176728445.4062,76.66015625,-854.4921875,31.25,161.62109375,40.0390625
1510176728447.4707,86.42578125,-969.7265625,0.0,-2.44140625,45.41015625
1510176728451.377,98.14453125,-1000.0,8.30078125,36.62109375,13.18359375
1510176728455.2832,80.56640625,-796.875,48.828125,255.859375,-13.18359375
1510176728459.1895,83.0078125,-627.44140625,43.9453125,280.76171875,-5.37109375
1510176728463.0957,91.796875,-868.1640625,3.90625,88.37890625,-16.11328125
1510176728467.002,109.86328125,-1000.0,-3.90625,10.25390625,-37.109375
1510176728470.9082,119.62890625,-876.46484375,30.76171875,204.58984375,-37.109375
1510176728474.8145,130.859375,-550.78125,53.7109375,348.6328125,-27.83203125
1510176728478.7207,166.015625,-700.1953125,14.6484375,175.78125,-42.96875
1510176728482.627,171.38671875,-1000.0,-4.8828125,26.85546875,0.48828125
1510176728486.5332,183.59375,-842.28515625,34.1796875,171.38671875,14.16015625
1510176728490.4395,184.5703125,-372.0703125,58.10546875,347.65625,-41.50390625
1510176728492.4836,153.80859375,-503.41796875,37.109375,205.078125,-59.5703125
1510176728496.39,155.2734375,-947.75390625,9.765625,29.78515625,-35.15625
1510176728500.2961,140.625,-837.890625,28.3203125,139.6484375,16.11328125
1510176728504.2024,134.27734375,-444.82421875,54.19921875,333.49609375,23.92578125
1510176728508.1086,155.2734375,-411.1328125,41.9921875,236.328125,51.7578125
1510176728512.015,132.32421875,-807.6171875,11.71875,37.59765625,51.7578125
1510176728515.9211,112.3046875,-1000.0,12.6953125,50.29296875,15.625
1510176728519.8274,134.27734375,-464.84375,54.6875,240.234375,48.33984375
1510176728523.7336,138.671875,-423.33984375,46.875,269.04296875,23.92578125
1510176728527.64,100.5859375,-838.8671875,20.5078125,35.15625,-28.80859375
1510176728531.5461,81.54296875,-807.12890625,22.94921875,-54.6875,-28.80859375
1510176728535.4524,51.7578125,-527.83203125,40.0390625,152.83203125,3.41796875
1510176728538.0176,11.23046875,-99.12109375,54.19921875,259.765625,71.77734375
1510176728541.9238,39.55078125,-253.41796875,28.80859375,72.75390625,59.5703125
1510176728545.83,61.5234375,-742.67578125,6.34765625,-80.078125,9.765625
1510176728549.7363,40.52734375,-819.3359375,19.04296875,55.17578125,-11.23046875
1510176728553.6426,29.296875,-382.8125,43.45703125,227.05078125,45.8984375
1510176728557.5488,18.5546875,-487.79296875,22.94921875,94.23828125,88.37890625
1510176728561.455,-8.7890625,-958.49609375,-8.30078125,-99.609375,-32.2265625
1510176728565.3613,-21.97265625,-999.0234375,0.9765625,-51.7578125,-33.203125
1510176728569.2676,-19.04296875,-872.0703125,24.90234375,163.0859375,43.45703125
1510176728573.1738,-38.0859375,-780.2734375,20.99609375,116.69921875,-1.953125
1510176728577.08,-62.5,-937.5,-18.5546875,-116.2109375,-22.94921875
1510176728580.9863,-73.73046875,-1000.0,-19.04296875,-123.046875,5.859375
1510176728582.546,-62.98828125,-885.7421875,22.4609375,83.0078125,32.2265625
1510176728586.4521,-52.24609375,-772.4609375,38.57421875,121.09375,59.5703125
1510176728590.3584,-81.0546875,-911.1328125,5.859375,-78.125,44.921875
1510176728594.2646,-92.7734375,-983.3984375,-13.18359375,-170.8984375,-4.8828125
1510176728598.171,-92.28515625,-963.37890625,14.6484375,12.6953125,37.109375
1510176728602.0771,-110.3515625,-970.21484375,30.76171875,147.94921875,1.953125
1510176728605.9834,-94.23828125,-970.21484375,1.953125,-20.01953125,-24.4140625
1510176728609.8896,-67.87109375,-970.21484375,-24.4140625,-174.31640625,7.32421875
1510176728613.796,-66.40625,-970.21484375,6.34765625,-52.734375,18.5546875
1510176728617.7021,-77.63671875,-970.21484375,39.0625,160.15625,32.2265625
1510176728621.6084,-93.75,-970.21484375,15.13671875,61.5234375,22.94921875
1510176728625.5146,-130.859375,-970.21484375,-15.13671875,-139.6484375,-27.83203125
1510176728627.578,-155.2734375,-970.21484375,4.8828125,-82.51953125,-14.6484375
1510176728631.4841,-115.234375,-969.23828125,43.9453125,146.484375,60.546875
1510176728635.3904,-67.87109375,-969.7265625,24.90234375,139.6484375,42.48046875
1510176728639.2966,-79.58984375,-970.21484375,-8.30078125,-56.15234375,-33.69140625
1510176728643.203,-100.5859375,-970.21484375,-10.7421875,-102.05078125,-49.31640625
1510176728647.1091,-91.30859375,-970.21484375,14.6484375,113.76953125,-46.38671875
1510176728651.0154,-104.98046875,-970.21484375,19.04296875,230.95703125,-16.11328125
1510176728654.9216,-123.046875,-970.21484375,-3.90625,9.765625,-15.625
1510176728658.828,-111.81640625,-970.21484375,2.9296875,-120.60546875,-33.203125
1510176728662.7341,-102.05078125,-970.21484375,31.73828125,86.9140625,24.4140625
1510176728666.6404,-104.00390625,-970.21484375,46.875,245.60546875,41.50390625
1510176728670.5466,-126.46484375,-970.21484375,19.53125,82.51953125,14.6484375
1510176728672.6096,-131.34765625,-970.21484375,-3.90625,-88.8671875,10.7421875
1510176728676.5159,-96.19140625,-970.21484375,14.16015625,35.15625,8.7890625
1510176728680.422,-81.54296875,-970.21484375,45.41015625,246.58203125,24.4140625
1510176728684.3284,-103.515625,-970.21484375,34.1796875,156.73828125,-22.4609375
1510176728688.2346,-126.46484375,-970.21484375,9.765625,-35.15625,-29.296875
1510176728692.1409,-128.41796875,-970.21484375,12.6953125,8.30078125,27.83203125
1510176728696.047,-104.98046875,-970.21484375,39.55078125,210.9375,50.78125
1510176728699.9534,-101.5625,-970.21484375,41.9921875,192.3828125,57.12890625
1510176728703.8596,-124.51171875,-970.21484375,17.578125,-18.06640625,42.96875
1510176728707.7659,-119.140625,-970.21484375,6.34765625,-76.171875,30.2734375
1510176728711.672,-92.7734375,-970.21484375,28.80859375,145.01953125,-47.36328125
1510176728715.5784,-97.16796875,-970.21484375,41.9921875,263.18359375,-33.69140625
1510176728717.6418,-107.421875,-970.21484375,19.53125,58.10546875,13.18359375
1510176728721.548,-104.00390625,-970.21484375,1.46484375,-73.2421875,9.27734375
1510176728725.4543,-87.890625,-970.21484375,21.484375,88.37890625,0.9765625
1510176728729.3606,-80.56640625,-970.21484375,50.78125,242.1875,-6.34765625
1510176728733.2668,-93.75,-970.21484375,29.296875,94.23828125,3.90625
1510176728737.173,-108.88671875,-970.21484375,-0.48828125,-73.73046875,19.53125
1510176728741.0793,-110.83984375,-970.21484375,17.578125,9.765625,61.03515625
1510176728744.9856,-90.8203125,-970.21484375,51.7578125,217.7734375,62.01171875
1510176728748.8918,-100.5859375,-970.21484375,37.59765625,171.38671875,46.875
1510176728752.798,-141.6015625,-970.21484375,1.953125,-34.1796875,-17.578125
1510176728756.7043,-119.62890625,-970.21484375,-1.46484375,-38.57421875,-35.15625
1510176728760.6106,-54.19921875,-970.21484375,32.2265625,192.87109375,36.1328125
1510176728777.6838,-51.26953125,-970.21484375,32.2265625,228.02734375,64.94140625
1510176728781.59,-90.33203125,-970.21484375,-2.9296875,2.9296875,89.35546875
1510176728785.4963,-89.84375,-970.21484375,-8.7890625,-75.1953125,73.2421875
1510176728789.4026,-60.546875,-970.21484375,25.87890625,139.6484375,3.41796875
1510176728793.3088,-58.59375,-970.21484375,39.55078125,266.11328125,1.46484375
1510176728797.215,-68.84765625,-970.21484375,11.23046875,81.0546875,27.34375
1510176728801.1213,-80.56640625,-970.21484375,-6.34765625,-66.40625,13.18359375
1510176728805.0276,-54.6875,-970.21484375,20.01953125,81.54296875,35.64453125
1510176728808.9338,-10.25390625,-970.21484375,41.9921875,273.4375,26.85546875
1510176728812.84,-43.45703125,-970.21484375,10.25390625,112.79296875,-4.39453125
1510176728816.7463,-74.21875,-970.21484375,-11.71875,-93.26171875,14.6484375
1510176728820.6526,-44.43359375,-970.21484375,12.6953125,-0.48828125,-24.4140625
1510176728822.7156,-14.16015625,-970.21484375,42.48046875,214.84375,20.5078125
1510176728826.6218,-17.08984375,-970.21484375,41.50390625,167.48046875,86.9140625
1510176728830.528,-22.94921875,-970.21484375,17.578125,-31.25,6.34765625
1510176728834.4343,-21.97265625,-970.21484375,19.04296875,-41.50390625,-5.37109375
1510176728838.3406,-3.90625,-970.21484375,49.8046875,179.6875,-19.53125
1510176728842.2468,3.41796875,-970.21484375,51.26953125,238.28125,-17.08984375
1510176728846.153,-22.94921875,-970.21484375,24.4140625,23.92578125,-6.8359375
1510176728850.0593,-46.875,-970.21484375,16.6015625,-85.9375,23.92578125
1510176728853.9656,-20.99609375,-970.21484375,29.78515625,91.30859375,16.6015625
1510176728857.8718,13.671875,-970.21484375,36.62109375,253.41796875,-23.4375
1510176728861.778,-15.13671875,-970.21484375,19.04296875,82.03125,-22.94921875
1510176728865.6843,-60.546875,-970.21484375,-0.48828125,-100.5859375,-2.9296875
1510176728867.7478,-24.90234375,-970.21484375,21.97265625,34.1796875,9.27734375
1510176728871.654,4.8828125,-970.21484375,46.38671875,238.28125,-20.01953125
1510176728875.5603,-24.4140625,-970.21484375,28.3203125,132.8125,10.25390625
1510176728879.4666,-22.94921875,-970.21484375,3.41796875,-57.6171875,-43.45703125
1510176728883.3728,-2.9296875,-970.21484375,15.625,-5.859375,-68.359375
1510176728887.279,35.15625,-970.21484375,32.71484375,208.0078125,-30.2734375
1510176728891.1853,36.1328125,-970.21484375,28.3203125,201.66015625,-30.76171875
1510176728895.0916,-13.18359375,-970.21484375,4.39453125,-25.390625,-24.4140625
1510176728898.9978,-43.45703125,-970.21484375,-12.6953125,-74.70703125,-38.0859375
1510176728902.904,-6.34765625,-970.21484375,28.80859375,166.015625,13.18359375
1510176728906.8103,19.53125,-970.21484375,48.828125,243.1640625,42.48046875
1510176728910.7166,-8.7890625,-970.21484375,13.671875,34.1796875,-14.16015625
1510176728912.2798,-31.73828125,-970.21484375,4.8828125,-85.9375,1.46484375
1510176728916.186,-16.6015625,-970.21484375,32.2265625,78.125,9.765625
1510176728920.0923,13.671875,-970.21484375,53.22265625,238.76953125,-29.78515625
1510176728923.9985,12.6953125,-970.21484375,25.390625,83.49609375,0.48828125
1510176728927.9048,-28.80859375,-970.21484375,4.8828125,-88.37890625,12.20703125
1510176728931.811,-20.99609375,-970.21484375,31.25,26.3671875,50.29296875
1510176728935.7173,46.875,-970.21484375,63.4765625,245.60546875,54.6875
1510176728939.6235,30.76171875,-970.21484375,45.8984375,166.50390625,53.7109375
1510176728943.5298,-7.8125,-970.21484375,9.765625,-48.828125,20.01953125
1510176728947.436,-12.6953125,-970.21484375,21.484375,-18.06640625,25.87890625
1510176728951.3423,1.46484375,-970.21484375,53.7109375,200.68359375,29.78515625
1510176728955.2485,12.20703125,-970.21484375,47.36328125,207.51953125,0.48828125
1510176728957.314,-24.90234375,-970.21484375,16.11328125,-6.34765625,10.7421875
1510176728961.2202,-21.484375,-970.21484375,7.32421875,-70.3125,4.8828125
1510176728965.1265,42.96875,-970.21484375,42.96875,137.20703125,30.76171875
1510176728969.0327,48.828125,-970.21484375,53.22265625,245.60546875,26.85546875
1510176728972.939,36.1328125,-970.21484375,15.625,45.41015625,5.859375
1510176728976.8452,23.92578125,-970.21484375,-7.8125,-121.09375,-7.32421875
1510176728980.7515,37.59765625,-970.21484375,9.27734375,40.52734375,-0.9765625
1510176728984.6577,63.4765625,-970.21484375,29.78515625,235.3515625,37.59765625
1510176728988.564,20.01953125,-970.21484375,11.23046875,85.44921875,43.45703125
1510176728992.4702,-33.203125,-970.21484375,-10.25390625,-81.54296875,23.92578125
1510176728996.3765,1.953125,-970.21484375,8.30078125,13.671875,23.92578125
1510176729000.2827,54.19921875,-970.21484375,41.9921875,222.16796875,47.8515625
1510176729002.5815,50.78125,-970.21484375,31.73828125,168.45703125,28.80859375
1510176729006.4878,30.76171875,-970.21484375,2.44140625,-30.76171875,-8.7890625
1510176729010.394,29.78515625,-970.21484375,0.0,-34.1796875,29.296875
1510176729014.3003,53.22265625,-970.21484375,28.3203125,168.45703125,16.11328125
1510176729018.2065,83.984375,-970.21484375,38.0859375,210.9375,-43.45703125
1510176729022.1128,60.546875,-970.21484375,5.37109375,-7.32421875,-4.39453125
1510176729026.019,38.0859375,-970.21484375,-12.20703125,-85.44921875,40.0390625
1510176729029.9253,57.12890625,-970.21484375,20.01953125,131.8359375,41.50390625
1510176729033.8315,73.73046875,-970.21484375,51.7578125,241.2109375,11.23046875
1510176729037.7378,49.31640625,-970.21484375,25.390625,57.12890625,6.8359375
1510176729041.644,18.06640625,-970.21484375,-3.90625,-75.1953125,48.828125
1510176729045.5503,49.8046875,-970.21484375,26.85546875,62.01171875,27.83203125
1510176729047.6133,63.4765625,-970.21484375,53.22265625,231.4453125,22.94921875
1510176729051.5195,32.71484375,-970.21484375,20.99609375,119.62890625,16.6015625
1510176729055.4258,22.4609375,-970.21484375,-5.37109375,-63.96484375,8.7890625
1510176729059.332,16.11328125,-970.21484375,4.8828125,-15.625,-12.20703125
1510176729063.2383,42.96875,-970.21484375,32.71484375,196.77734375,-36.1328125
1510176729067.1445,64.453125,-970.21484375,19.53125,175.78125,-15.625
1510176729071.0508,40.52734375,-970.21484375,-15.13671875,-22.4609375,2.9296875
1510176729074.957,10.25390625,-970.21484375,-3.90625,-59.5703125,-3.90625
1510176729078.8633,24.90234375,-970.21484375,36.1328125,145.01953125,-1.953125
1510176729082.7695,43.9453125,-970.21484375,33.203125,213.37890625,-12.20703125
1510176729086.6758,21.97265625,-970.21484375,-2.9296875,14.6484375,-3.90625
1510176729090.582,0.48828125,-970.21484375,0.0,-88.37890625,34.1796875
1510176729092.6638,10.25390625,-970.21484375,33.203125,96.6796875,-8.30078125
1510176729096.57,54.19921875,-970.21484375,40.0390625,250.48828125,-3.41796875
1510176729100.4763,47.36328125,-970.21484375,11.71875,59.08203125,59.08203125
1510176729104.3826,7.32421875,-970.21484375,-1.46484375,-104.4921875,64.453125
1510176729108.2888,44.43359375,-970.21484375,17.578125,61.03515625,13.671875
1510176729112.195,73.2421875,-970.21484375,30.76171875,261.71875,-12.20703125
1510176729116.1013,35.15625,-970.21484375,16.11328125,134.27734375,26.85546875
1510176729120.0076,11.23046875,-970.21484375,7.32421875,-78.125,10.7421875
1510176729123.9138,18.5546875,-970.21484375,15.13671875,-16.6015625,11.71875
1510176729127.82,50.29296875,-970.21484375,32.2265625,206.54296875,31.73828125
1510176729131.7263,59.5703125,-970.21484375,29.78515625,210.44921875,2.9296875
1510176729135.6326,42.96875,-970.21484375,1.953125,-4.39453125,24.4140625
1510176729152.6863,22.4609375,-970.21484375,-2.9296875,-69.82421875,50.78125
1510176729156.5925,40.52734375,-970.21484375,31.73828125,147.4609375,82.51953125
1510176729160.4988,74.70703125,-970.21484375,43.9453125,224.12109375,82.51953125
1510176729164.405,28.80859375,-970.21484375,20.5078125,29.78515625,26.85546875
1510176729168.3113,18.06640625,-970.21484375,-1.46484375,-63.4765625,6.8359375
1510176729172.2175,53.7109375,-970.21484375,12.6953125,91.796875,47.36328125
1510176729176.1238,43.45703125,-970.21484375,40.0390625,223.14453125,53.22265625
1510176729180.03,40.0390625,-970.21484375,17.08984375,73.2421875,-4.8828125
1510176729183.9363,41.50390625,-970.21484375,-4.8828125,-73.73046875,-2.44140625
1510176729187.8425,34.1796875,-970.21484375,8.30078125,33.69140625,-17.08984375
1510176729191.7488,59.5703125,-970.21484375,42.96875,232.91015625,-64.453125
1510176729195.655,61.5234375,-970.21484375,36.62109375,139.6484375,-65.4296875
1510176729197.7178,33.203125,-970.21484375,-5.859375,-53.22265625,-33.203125
1510176729201.624,20.01953125,-970.21484375,-1.46484375,-14.16015625,-34.1796875
1510176729205.5303,54.6875,-970.21484375,40.0390625,180.17578125,-41.50390625
1510176729209.4365,53.22265625,-970.21484375,42.96875,206.0546875,-13.671875
1510176729213.3428,24.90234375,-970.21484375,6.34765625,11.71875,-30.76171875
1510176729217.249,3.41796875,-970.21484375,-2.44140625,-46.875,-23.92578125
1510176729221.1553,27.83203125,-970.21484375,20.5078125,148.92578125,-49.31640625
1510176729225.0615,83.984375,-970.21484375,39.55078125,217.28515625,-51.26953125
1510176729228.9678,44.921875,-970.21484375,7.32421875,32.71484375,-44.43359375
1510176729232.874,6.8359375,-970.21484375,-12.20703125,-91.30859375,-27.83203125
1510176729236.7803,21.97265625,-970.21484375,32.71484375,70.3125,18.06640625
1510176729240.6865,70.80078125,-970.21484375,54.19921875,244.140625,-10.25390625
1510176729242.7498,87.890625,-970.21484375,26.3671875,86.42578125,-29.296875
1510176729246.656,48.33984375,-970.21484375,0.9765625,-78.125,-15.13671875
1510176729250.5623,35.15625,-970.21484375,16.11328125,26.3671875,18.5546875
1510176729254.4685,30.76171875,-970.21484375,40.52734375,241.2109375,-2.44140625
1510176729258.3748,14.16015625,-970.21484375,29.296875,166.9921875,-9.765625
1510176729262.281,21.484375,-970.21484375,2.44140625,-59.08203125,13.18359375
1510176729266.1873,39.55078125,-970.21484375,3.90625,-58.10546875,-19.04296875
1510176729270.0935,54.19921875,-970.21484375,37.59765625,161.1328125,-52.24609375
1510176729273.9998,87.890625,-970.21484375,35.64453125,213.37890625,-53.22265625
1510176729277.906,70.3125,-970.21484375,15.13671875,-1.953125,-43.9453125
1510176729281.8123,1.46484375,-970.21484375,15.13671875,-85.9375,-41.015625
1510176729285.7185,39.55078125,-970.21484375,38.0859375,119.62890625,-21.484375
1510176729287.7852,83.0078125,-970.21484375,59.08203125,245.1171875,23.92578125
1510176729291.6914,44.921875,-970.21484375,36.62109375,46.875,65.91796875
1510176729295.5977,30.2734375,-970.21484375,15.13671875,-99.12109375,31.25
1510176729299.504,57.12890625,-970.21484375,31.73828125,59.08203125,-1.46484375
1510176729303.4102,73.2421875,-970.21484375,59.08203125,254.8828125,16.11328125
1510176729307.3164,104.98046875,-970.21484375,44.43359375,135.25390625,16.11328125
1510176729311.2227,80.56640625,-970.21484375,23.92578125,-59.08203125,1.46484375
1510176729315.129,30.76171875,-970.21484375,33.203125,6.34765625,11.71875
1510176729319.0352,89.84375,-970.21484375,51.7578125,214.84375,-18.06640625
1510176729322.9414,73.2421875,-970.703125,56.640625,160.15625,-38.0859375
1510176729326.8477,18.06640625,-962.40234375,29.78515625,-50.29296875,9.765625
1510176729330.754,48.828125,-988.28125,23.4375,-70.3125,18.5546875
1510176729332.313,66.40625,-904.78515625,58.10546875,150.87890625,-1.46484375
1510176729336.2192,56.640625,-800.78125,66.40625,230.95703125,15.13671875
1510176729340.1255,8.30078125,-926.7578125,34.1796875,12.20703125,1.953125
1510176729344.0317,0.9765625,-997.55859375,15.13671875,-101.5625,6.8359375
1510176729347.938,41.015625,-907.71484375,39.0625,89.35546875,56.15234375
1510176729351.8442,68.84765625,-880.37109375,59.5703125,231.4453125,47.36328125
1510176729355.7505,36.1328125,-968.26171875,33.69140625,69.82421875,-15.625
1510176729359.6567,21.484375,-970.21484375,1.46484375,-89.84375,15.13671875
1510176729363.563,48.33984375,-982.91015625,24.4140625,13.18359375,16.6015625
1510176729367.4692,50.78125,-798.33984375,61.5234375,211.9140625,-1.953125
1510176729371.3755,48.33984375,-785.15625,38.57421875,127.44140625,38.0859375
1510176729375.2817,30.2734375,-981.93359375,6.34765625,-75.1953125,38.0859375
1510176729377.345,-15.13671875,-973.14453125,21.484375,-34.66796875,45.41015625
1510176729381.2512,18.06640625,-925.29296875,48.828125,175.78125,20.01953125
1510176729385.1575,82.51953125,-939.94140625,35.64453125,176.26953125,-30.76171875
1510176729389.0637,57.12890625,-973.6328125,13.18359375,-23.92578125,25.390625
1510176729392.97,36.62109375,-974.609375,9.765625,-69.3359375,36.1328125
1510176729396.8762,39.0625,-952.63671875,37.109375,129.8828125,2.9296875
1510176729400.7825,44.43359375,-929.6875,43.9453125,222.16796875,28.3203125
1510176729404.6887,34.1796875,-962.40234375,12.20703125,14.16015625,28.3203125
1510176729408.595,-6.34765625,-985.3515625,9.27734375,-109.86328125,-1.953125
1510176729412.5012,4.8828125,-932.12890625,39.0625,77.63671875,17.578125
1510176729416.4075,48.828125,-870.60546875,55.17578125,240.72265625,60.546875
1510176729420.3137,28.80859375,-950.1953125,29.78515625,74.21875,41.50390625
1510176729422.377,-2.44140625,-973.6328125,4.8828125,-102.5390625,-25.87890625
1510176729426.2832,17.578125,-972.16796875,23.4375,15.625,0.9765625
1510176729430.1895,55.17578125,-945.80078125,55.6640625,210.9375,52.734375
1510176729434.0957,24.90234375,-927.734375,46.875,148.4375,75.68359375
1510176729438.002,1.46484375,-970.21484375,14.16015625,-52.24609375,14.6484375
1510176729441.9082,-5.37109375,-971.6796875,14.16015625,-55.17578125,-3.90625
1510176729445.8145,-5.859375,-968.26171875,37.59765625,173.828125,16.11328125
1510176729449.7207,30.76171875,-970.703125,42.48046875,192.3828125,-49.8046875
1510176729453.627,16.6015625,-967.28515625,26.85546875,-18.06640625,-11.71875
1510176729457.5332,-6.8359375,-977.5390625,16.6015625,-86.9140625,37.59765625
1510176729461.4395,15.625,-944.3359375,43.9453125,125.0,34.1796875
1510176729465.3457,25.390625,-924.31640625,59.08203125,251.46484375,-22.4609375
1510176729467.429,27.83203125,-970.703125,32.2265625,59.08203125,-76.171875
1510176729471.3352,-5.859375,-971.6796875,9.765625,-96.19140625,-22.4609375
1510176729475.2415,9.27734375,-968.75,28.3203125,41.015625,-9.765625
1510176729479.1477,52.24609375,-964.84375,54.19921875,220.703125,-39.55078125
1510176729483.054,22.94921875,-967.28515625,36.62109375,94.23828125,-34.66796875
1510176729486.9602,-10.25390625,-971.19140625,0.0,-73.2421875,-13.671875
1510176729490.8665,-14.16015625,-969.7265625,6.8359375,-21.97265625,-23.92578125
1510176729494.7727,21.484375,-970.21484375,44.921875,175.78125,-46.38671875
1510176729498.679,38.57421875,-970.703125,41.015625,165.0390625,-23.4375
1510176729502.5852,19.04296875,-964.84375,12.6953125,-26.3671875,20.99609375
1510176729506.4915,9.27734375,-983.3984375,10.7421875,-39.0625,19.04296875
1510176729510.3977,31.73828125,-921.875,44.43359375,153.3203125,57.6171875
1510176729527.4534,51.7578125,-882.8125,52.24609375,199.70703125,81.54296875
1510176729531.3596,-14.16015625,-968.75,25.390625,15.625,31.73828125
1510176729535.2659,-46.875,-974.609375,9.27734375,-76.66015625,12.6953125
1510176729539.172,7.32421875,-965.8203125,34.66796875,103.515625,-31.25
1510176729543.0784,25.87890625,-957.03125,51.7578125,232.91015625,30.76171875
1510176729546.9846,-19.04296875,-966.30859375,18.5546875,41.9921875,83.0078125
1510176729550.8909,-18.5546875,-972.16796875,-0.9765625,-117.67578125,24.4140625
1510176729554.797,26.3671875,-969.23828125,27.34375,33.69140625,21.97265625
1510176729558.7034,61.5234375,-970.21484375,51.7578125,230.95703125,17.578125
1510176729562.6096,42.48046875,-970.21484375,31.25,103.515625,29.296875
1510176729566.5159,-14.16015625,-970.21484375,5.859375,-83.0078125,78.125
1510176729570.422,-11.23046875,-970.21484375,17.578125,-10.25390625,69.3359375
1510176729572.4846,30.2734375,-970.21484375,42.96875,181.15234375,38.0859375
1510176729576.3909,34.1796875,-970.21484375,27.83203125,150.87890625,56.15234375
1510176729580.297,-0.48828125,-970.21484375,3.90625,-47.36328125,15.13671875
1510176729584.2034,-2.9296875,-970.21484375,6.34765625,-83.0078125,0.9765625
1510176729588.1096,-1.46484375,-970.21484375,24.90234375,130.37109375,8.30078125
1510176729592.0159,-1.953125,-970.21484375,38.0859375,215.8203125,-14.16015625
1510176729595.922,2.9296875,-970.21484375,20.01953125,15.625,1.953125
1510176729599.8284,-17.08984375,-970.21484375,1.46484375,-103.02734375,-6.8359375
1510176729603.7346,-5.37109375,-970.21484375,21.97265625,83.984375,-13.18359375
1510176729607.6409,28.80859375,-970.21484375,37.59765625,228.02734375,-16.6015625
1510176729611.547,2.44140625,-970.21484375,24.90234375,51.7578125,-11.71875
1510176729615.4534,-42.96875,-970.21484375,2.44140625,-87.40234375,7.32421875
1510176729617.5361,-7.8125,-970.21484375,17.578125,29.78515625,-4.39453125
1510176729621.4424,28.3203125,-970.21484375,43.45703125,219.23828125,21.97265625
1510176729625.3486,-1.953125,-970.21484375,28.3203125,129.8828125,-5.859375
1510176729629.255,-37.59765625,-970.21484375,4.8828125,-69.82421875,-41.9921875
1510176729633.1611,-29.296875,-970.21484375,3.90625,-17.08984375,-27.83203125
1510176729637.0674,-8.7890625,-970.21484375,36.62109375,189.94140625,-47.36328125
1510176729640.9736,-12.20703125,-970.21484375,36.1328125,178.22265625,-34.1796875
1510176729644.88,-42.48046875,-970.21484375,5.859375,-36.1328125,-8.30078125
1510176729648.7861,-58.10546875,-970.21484375,-7.8125,-107.421875,1.46484375
1510176729652.6924,-3.90625,-970.21484375,23.92578125,99.609375,-23.92578125
1510176729656.5986,45.41015625,-970.21484375,48.828125,223.14453125,0.0
1510176729660.505,14.16015625,-970.21484375,19.53125,34.66796875,63.96484375
1510176729662.548,7.8125,-970.21484375,-3.90625,-92.7734375,17.08984375
1510176729666.4543,8.7890625,-970.21484375,19.53125,83.0078125,-26.85546875
1510176729670.3606,22.94921875,-970.21484375,45.8984375,238.76953125,-42.96875
1510176729674.2668,12.6953125,-970.21484375,19.53125,68.84765625,-34.1796875
1510176729678.173,-39.55078125,-970.21484375,-8.30078125,-100.09765625,-20.01953125
1510176729682.0793,-7.8125,-970.21484375,7.32421875,0.9765625,-21.97265625
1510176729685.9856,32.71484375,-970.21484375,38.57421875,201.171875,26.85546875
1510176729689.8918,31.25,-970.21484375,25.390625,152.83203125,24.90234375
1510176729693.798,9.27734375,-970.21484375,-9.765625,-60.546875,19.53125
1510176729697.7043,-20.01953125,-970.21484375,3.41796875,-74.70703125,28.3203125
1510176729701.6106,1.953125,-970.21484375,32.2265625,156.25,25.87890625
1510176729705.5168,44.43359375,-970.21484375,27.83203125,190.4296875,32.71484375
1510176729722.5898,7.32421875,-970.21484375,1.46484375,-29.78515625,-35.64453125
1510176729726.496,-34.1796875,-970.21484375,-1.46484375,-109.375,-73.73046875
1510176729730.4023,14.16015625,-970.21484375,29.78515625,95.21484375,22.4609375
1510176729734.3086,62.5,-970.21484375,40.52734375,214.84375,35.15625
1510176729738.2148,19.53125,-970.21484375,13.671875,25.390625,-3.90625
1510176729742.121,-13.671875,-970.21484375,-3.90625,-111.81640625,7.8125
1510176729746.0273,-3.90625,-970.21484375,15.625,40.52734375,-20.99609375
1510176729749.9336,7.32421875,-970.21484375,38.0859375,196.2890625,11.71875
1510176729753.8398,24.90234375,-970.21484375,24.90234375,48.828125,63.4765625
1510176729757.746,3.90625,-970.21484375,5.37109375,-102.5390625,41.9921875
1510176729761.6523,13.18359375,-970.21484375,16.6015625,-1.953125,76.66015625
1510176729765.5586,37.109375,-970.21484375,45.41015625,200.1953125,47.8515625
1510176729752.6147,-7.32421875,-970.21484375,39.0625,158.69140625,-15.625
1510176729756.521,-17.578125,-970.21484375,11.23046875,-34.66796875,18.06640625
1510176729760.4272,11.71875,-970.21484375,3.90625,-36.1328125,-20.01953125
1510176729764.3335,41.9921875,-970.21484375,34.66796875,165.0390625,-32.2265625
1510176729768.2397,13.18359375,-970.21484375,43.9453125,217.7734375,3.41796875
1510176729772.146,-1.46484375,-970.21484375,12.6953125,34.1796875,40.0390625
1510176729776.0522,32.71484375,-970.21484375,-4.39453125,-68.359375,-16.6015625
1510176729779.9585,44.43359375,-970.21484375,23.92578125,108.3984375,-45.8984375
1510176729783.8647,56.15234375,-970.21484375,51.7578125,263.18359375,3.90625
1510176729787.771,29.78515625,-970.21484375,39.55078125,97.65625,25.390625
1510176729791.6772,8.7890625,-970.21484375,7.32421875,-68.359375,7.8125
1510176729795.5835,24.90234375,-970.21484375,16.11328125,81.0546875,4.39453125
1510176729797.6458,52.734375,-970.21484375,58.10546875,277.83203125,12.20703125
1510176729801.552,51.7578125,-969.23828125,43.9453125,166.015625,6.34765625
1510176729805.4583,17.08984375,-969.7265625,17.08984375,-22.4609375,54.19921875
1510176729809.3645,3.90625,-975.09765625,22.4609375,42.96875,41.9921875
1510176729813.2708,30.76171875,-933.10546875,52.24609375,241.69921875,2.44140625
1510176729817.177,47.8515625,-942.3828125,47.36328125,215.33203125,17.08984375
1510176729821.0833,9.765625,-967.7734375,7.8125,20.5078125,31.25
1510176729824.9895,-6.34765625,-990.234375,9.27734375,-36.1328125,39.0625
1510176729828.8958,12.6953125,-887.20703125,50.29296875,180.6640625,46.875
1510176729832.802,9.765625,-785.15625,51.26953125,269.53125,39.0625
1510176729836.7083,10.7421875,-937.01171875,21.97265625,68.84765625,-12.6953125
1510176729840.6145,27.34375,-1000.0,12.6953125,-61.03515625,-51.7578125
1510176729857.6858,27.34375,-910.15625,36.62109375,120.1171875,-13.18359375
1510176729861.592,46.38671875,-809.5703125,60.546875,298.828125,7.32421875
1510176729865.4983,53.22265625,-939.94140625,34.1796875,105.46875,-7.8125
1510176729869.4045,22.4609375,-984.86328125,7.32421875,-68.359375,-16.11328125
1510176729873.3108,8.30078125,-961.9140625,34.66796875,47.8515625,-39.55078125
1510176729877.217,20.01953125,-971.19140625,53.7109375,238.28125,-13.671875
1510176729881.1233,27.34375,-969.23828125,40.0390625,139.6484375,57.6171875
1510176729885.0295,-6.8359375,-968.75,27.34375,-53.22265625,72.265625
1510176729888.9358,-23.92578125,-972.65625,28.3203125,-1.953125,41.015625
1510176729892.842,24.4140625,-953.61328125,43.45703125,188.96484375,34.66796875
1510176729896.7483,62.5,-923.33984375,44.43359375,203.61328125,46.875
1510176729900.6545,38.57421875,-956.0546875,21.484375,13.18359375,-14.16015625
1510176729902.718,3.90625,-975.5859375,15.13671875,-53.22265625,-58.59375
1510176729906.6243,16.6015625,-971.6796875,42.48046875,151.85546875,-35.15625
1510176729910.5305,39.55078125,-917.96875,57.6171875,229.00390625,-22.4609375
1510176729914.4368,29.78515625,-929.6875,30.76171875,41.9921875,10.25390625
1510176729918.343,17.578125,-982.421875,17.08984375,-77.63671875,49.31640625
1510176729922.2493,7.32421875,-956.54296875,38.0859375,86.9140625,55.6640625
1510176729926.1555,16.6015625,-924.8046875,49.8046875,259.27734375,45.8984375
1510176729930.0618,22.94921875,-950.68359375,33.69140625,98.6328125,72.75390625
1510176729933.968,21.484375,-965.8203125,11.23046875,-80.078125,63.4765625
1510176729937.8743,24.90234375,-996.09375,14.16015625,18.06640625,-9.765625
1510176729941.7805,18.5546875,-836.9140625,54.19921875,224.12109375,64.453125
1510176729945.6868,5.859375,-789.0625,50.78125,168.9453125,64.453125
1510176729947.2505,-18.06640625,-975.5859375,11.23046875,-49.31640625,-25.87890625
1510176729951.1567,-11.23046875,-986.328125,16.11328125,-39.55078125,40.0390625
1510176729955.063,14.6484375,-909.1796875,46.38671875,177.734375,29.78515625
1510176729958.9692,5.37109375,-875.0,48.33984375,204.58984375,-35.64453125
1510176729962.8755,-18.06640625,-958.49609375,23.4375,4.8828125,-5.859375
1510176729966.7817,-7.8125,-991.2109375,16.6015625,-78.61328125,12.20703125
1510176729970.688,21.484375,-914.55078125,46.38671875,105.46875,22.94921875
1510176729974.5942,38.0859375,-812.01171875,65.4296875,223.6328125,27.34375
1510176729978.5005,21.97265625,-933.10546875,23.4375,52.734375,-5.37109375
1510176729982.4067,0.9765625,-981.4453125,2.9296875,-100.5859375,-20.5078125
1510176729986.313,6.34765625,-977.5390625,39.55078125,39.0625,-34.66796875
1510176729990.2192,7.32421875,-809.5703125,63.96484375,228.515625,36.62109375
1510176729992.2808,-21.97265625,-814.94140625,41.015625,98.6328125,69.3359375
1510176729996.187,-33.203125,-988.76953125,10.25390625,-78.125,-20.99609375
1510176730000.0933,-10.7421875,-974.609375,23.4375,7.32421875,4.8828125
1510176730003.9995,11.71875,-919.43359375,52.734375,221.19140625,-8.30078125
1510176730007.9058,11.71875,-921.875,45.41015625,171.38671875,-27.83203125
1510176730011.812,-26.3671875,-977.5390625,13.18359375,-46.38671875,34.1796875
1510176730015.7183,-23.92578125,-973.6328125,11.23046875,-43.45703125,24.4140625
1510176730019.6245,16.6015625,-937.01171875,49.8046875,184.08203125,-4.39453125
1510176730023.5308,24.90234375,-941.40625,45.8984375,212.890625,-0.9765625
1510176730027.437,-13.18359375,-976.07421875,12.20703125,-8.7890625,37.109375
1510176730031.3433,-32.71484375,-967.28515625,17.08984375,-90.8203125,29.296875
1510176730035.2495,8.30078125,-975.5859375,36.62109375,102.05078125,-19.53125
1510176730037.3335,25.87890625,-942.87109375,53.22265625,231.93359375,-18.5546875
1510176730041.2397,-7.8125,-939.453125,31.73828125,65.4296875,20.01953125
1510176730045.146,-29.296875,-973.6328125,11.71875,-64.94140625,49.31640625
1510176730049.0522,1.953125,-975.09765625,29.78515625,73.73046875,35.15625
1510176730052.9585,19.53125,-929.6875,47.36328125,234.86328125,-13.671875
1510176730056.8647,0.0,-937.5,30.76171875,132.32421875,15.13671875
1510176730060.771,-18.5546875,-975.5859375,6.34765625,-45.8984375,10.25390625
1510176730064.6772,-2.44140625,-971.19140625,9.27734375,-10.25390625,22.4609375
1510176730068.5835,16.6015625,-962.890625,31.25,170.8984375,30.2734375
1510176730072.4897,-3.90625,-943.359375,41.50390625,156.25,33.69140625
1510176730076.396,-19.53125,-961.9140625,13.671875,-23.4375,20.99609375
1510176730080.3022,-17.08984375,-984.86328125,10.7421875,-36.62109375,-7.32421875
1510176730082.3447,-4.8828125,-929.6875,39.55078125,146.484375,5.859375
1510176730086.251,10.7421875,-887.6953125,43.9453125,195.80078125,0.48828125
1510176730090.1572,19.04296875,-966.30859375,9.765625,35.15625,48.33984375
1510176730094.0635,26.85546875,-974.609375,-8.7890625,-49.31640625,69.82421875
1510176730097.9697,28.80859375,-966.30859375,27.34375,109.375,-1.46484375
1510176730101.876,35.64453125,-970.21484375,52.734375,230.95703125,12.6953125
1510176730105.7822,7.8125,-968.75,33.203125,88.37890625,24.4140625
1510176730109.6885,-24.4140625,-967.28515625,13.18359375,-64.453125,22.94921875
1510176730113.5947,-13.671875,-982.91015625,29.296875,34.1796875,-2.44140625
1510176730117.501,13.18359375,-885.7421875,65.91796875,235.83984375,-26.85546875
1510176730121.4072,34.1796875,-877.44140625,50.29296875,146.97265625,-18.06640625
1510176730125.3135,11.23046875,-970.21484375,20.5078125,-40.0390625,56.640625
1510176730127.3774,-10.25390625,-998.53515625,29.78515625,2.44140625,42.48046875
1510176730131.2837,4.8828125,-833.49609375,66.40625,226.07421875,39.0625
1510176730135.19,13.18359375,-779.296875,55.6640625,229.00390625,22.4609375
1510176730139.0962,-11.71875,-977.05078125,16.6015625,-4.8828125,-29.296875
1510176730143.0024,7.32421875,-979.00390625,20.99609375,-50.78125,43.45703125
1510176730146.9087,62.01171875,-945.80078125,49.31640625,173.33984375,96.19140625
1510176730150.815,67.3828125,-937.5,52.24609375,252.44140625,51.26953125
1510176730154.7212,34.66796875,-964.84375,22.94921875,31.73828125,5.37109375
1510176730158.6274,20.01953125,-981.4453125,17.08984375,-79.1015625,24.90234375
1510176730162.5337,22.4609375,-941.40625,44.921875,93.75,22.94921875
1510176730166.44,26.85546875,-801.7578125,59.08203125,258.30078125,60.05859375
1510176730170.3462,36.62109375,-875.48828125,35.15625,122.0703125,72.265625
1510176730172.429,14.16015625,-980.95703125,12.6953125,-56.640625,30.76171875
1510176730176.3352,3.90625,-972.65625,24.4140625,26.3671875,-1.46484375
1510176730180.2415,28.3203125,-928.7109375,49.31640625,221.19140625,-1.46484375
1510176730184.1477,34.66796875,-916.015625,40.0390625,166.015625,-46.38671875
1510176730188.054,17.578125,-973.14453125,12.6953125,-32.71484375,-49.8046875
1510176730191.9602,20.99609375,-971.19140625,19.04296875,-34.1796875,22.4609375
1510176730195.8665,34.66796875,-968.26171875,39.55078125,163.0859375,31.73828125
1510176730199.7727,10.25390625,-968.75,42.48046875,184.5703125,31.25
1510176730203.679,-29.78515625,-963.8671875,23.4375,-7.8125,-2.9296875
1510176730207.5852,-2.44140625,-980.46875,10.7421875,-66.89453125,-17.08984375
1510176730211.4915,32.71484375,-944.82421875,41.9921875,120.1171875,-2.9296875
1510176730215.3977,43.45703125,-866.69921875,58.10546875,230.46875,-45.41015625
1510176730217.4614,32.71484375,-933.59375,26.85546875,64.453125,-41.015625
1510176730221.3677,3.90625,-982.421875,0.9765625,-82.51953125,-21.97265625
1510176730225.274,13.671875,-967.28515625,22.4609375,52.24609375,-26.85546875
1510176730229.1802,27.83203125,-847.65625,46.875,223.6328125,-3.41796875
1510176730233.0864,4.8828125,-878.90625,30.76171875,103.02734375,-2.44140625
1510176730236.9927,-16.11328125,-979.4921875,0.48828125,-48.828125,-31.25
1510176730240.899,-18.5546875,-983.88671875,6.34765625,22.4609375,-33.69140625
1510176730244.8052,0.9765625,-880.37109375,52.24609375,201.66015625,20.5078125
1510176730248.7114,15.13671875,-843.75,42.48046875,173.33984375,20.99609375
1510176730252.6177,0.9765625,-974.12109375,5.37109375,-24.4140625,-91.796875
1510176730256.524,-9.765625,-972.65625,11.23046875,-58.10546875,-88.37890625
1510176730260.4302,3.90625,-966.30859375,37.109375,143.06640625,-11.23046875
1510176730277.5042,23.4375,-972.16796875,38.57421875,202.63671875,-50.78125
1510176730281.4104,6.34765625,-964.84375,13.18359375,-4.39453125,-21.484375
1510176730285.3167,-22.4609375,-978.515625,8.30078125,-100.09765625,20.99609375
1510176730289.223,-11.23046875,-952.63671875,33.69140625,81.54296875,34.1796875
1510176730293.1292,15.625,-857.91015625,45.41015625,218.26171875,70.3125
1510176730297.0354,2.44140625,-926.7578125,17.578125,68.359375,77.63671875
1510176730300.9417,-26.3671875,-983.3984375,0.9765625,-93.75,54.6875
1510176730304.848,-24.4140625,-967.7734375,25.87890625,15.13671875,41.015625
1510176730308.7542,-13.18359375,-934.08203125,49.31640625,193.359375,46.38671875
1510176730312.6604,-7.8125,-944.3359375,27.34375,102.05078125,39.55078125
1510176730316.5667,-12.6953125,-977.05078125,1.953125,-73.2421875,12.20703125
1510176730320.473,-0.48828125,-967.7734375,12.20703125,-26.85546875,-7.32421875
1510176730323.0176,5.859375,-967.7734375,37.109375,190.4296875,-30.2734375
1510176730326.9238,-12.6953125,-968.75,43.9453125,173.828125,-43.45703125
1510176730330.83,-22.4609375,-970.21484375,22.94921875,-47.8515625,-30.76171875
1510176730334.7363,-55.17578125,-969.7265625,16.11328125,-82.51953125,0.48828125
1510176730338.6426,-33.69140625,-970.21484375,50.29296875,133.30078125,30.2734375
1510176730342.5488,3.90625,-970.21484375,53.7109375,217.7734375,16.11328125
1510176730346.455,3.41796875,-970.21484375,23.4375,16.6015625,-22.4609375
1510176730350.3613,-17.578125,-970.21484375,18.06640625,-97.65625,-7.8125
1510176730354.2676,-12.6953125,-970.21484375,36.1328125,61.03515625,4.8828125
1510176730358.1738,28.3203125,-970.21484375,51.7578125,217.7734375,46.38671875
1510176730362.08,7.8125,-969.7265625,42.96875,67.87109375,45.41015625
1510176730365.9863,-25.87890625,-967.7734375,21.97265625,-104.98046875,-23.4375
1510176730367.5679,-33.69140625,-979.98046875,29.296875,20.01953125,-38.0859375
1510176730371.474,6.8359375,-918.45703125,59.5703125,222.65625,28.80859375
1510176730375.3804,31.73828125,-916.015625,48.33984375,133.30078125,43.9453125
1510176730379.2866,4.39453125,-979.00390625,17.08984375,-68.359375,33.203125
1510176730383.1929,-14.6484375,-968.26171875,21.97265625,-41.9921875,40.52734375
1510176730387.099,-4.39453125,-969.7265625,48.33984375,174.8046875,28.80859375
1510176730391.0054,11.71875,-971.19140625,49.31640625,197.265625,-42.48046875
1510176730394.9116,-1.953125,-963.37890625,19.53125,-16.6015625,-48.33984375
1510176730398.8179,9.765625,-984.375,4.39453125,-84.47265625,-2.9296875
1510176730402.724,35.64453125,-926.7578125,35.15625,111.328125,16.6015625
1510176730406.6304,41.50390625,-832.51953125,59.5703125,217.28515625,17.08984375
1510176730410.5366,37.109375,-926.26953125,27.34375,41.015625,-2.9296875
1510176730412.579,13.18359375,-986.328125,8.30078125,-94.7265625,-4.8828125
1510176730416.4854,-9.27734375,-954.58984375,33.69140625,61.5234375,-5.37109375
1510176730420.3916,21.97265625,-831.54296875,56.640625,227.5390625,27.83203125
1510176730424.2979,30.76171875,-878.90625,28.3203125,105.46875,-5.859375
1510176730428.204,6.34765625,-985.3515625,-0.9765625,-63.4765625,-28.3203125
1510176730432.1104,10.7421875,-965.33203125,14.16015625,20.5078125,3.90625
1510176730436.0166,40.52734375,-969.23828125,43.45703125,222.65625,-18.06640625
1510176730439.9229,28.3203125,-970.703125,33.69140625,154.78515625,-31.25
1510176730443.829,-16.11328125,-963.37890625,5.37109375,-76.171875,-30.2734375
1510176730447.7354,-17.578125,-990.72265625,21.484375,-64.94140625,-12.20703125
1510176730451.6416,20.99609375,-884.27734375,48.828125,172.8515625,21.484375
1510176730455.5479,40.0390625,-845.21484375,48.33984375,203.125,6.34765625
1510176730457.6323,20.01953125,-971.6796875,19.04296875,-2.44140625,3.41796875
1510176730461.5386,-3.90625,-987.3046875,9.765625,-81.0546875,7.8125
1510176730465.4448,18.5546875,-912.59765625,37.59765625,123.046875,32.2265625
1510176730469.351,39.0625,-877.44140625,49.31640625,230.95703125,30.2734375
1510176730473.2573,19.04296875,-973.14453125,20.99609375,51.26953125,-48.828125
1510176730477.1636,-14.16015625,-972.65625,3.41796875,-68.359375,-22.4609375
1510176730481.0698,-8.7890625,-966.796875,29.78515625,56.640625,54.6875
1510176730484.976,25.390625,-970.703125,47.8515625,227.5390625,74.21875
1510176730488.8823,-1.953125,-969.7265625,31.73828125,93.75,80.56640625
1510176730492.7886,-28.3203125,-968.75,17.578125,-93.26171875,47.8515625
1510176730496.6948,-5.859375,-977.05078125,21.484375,-4.8828125,-2.44140625
1510176730500.601,20.5078125,-927.24609375,50.29296875,224.12109375,36.1328125
1510176730502.6438,36.62109375,-932.12890625,47.36328125,198.73046875,56.640625
1510176730506.55,13.671875,-974.12109375,22.94921875,-23.4375,24.90234375
1510176730510.4563,11.23046875,-978.515625,18.06640625,-42.96875,21.484375
1510176730514.3625,44.43359375,-929.6875,41.9921875,166.015625,12.6953125
1510176730518.2688,41.50390625,-899.4140625,51.26953125,214.35546875,-7.8125
1510176730522.175,3.90625,-966.30859375,24.90234375,22.94921875,9.765625
1510176730526.0813,-17.08984375,-975.5859375,7.32421875,-90.8203125,15.13671875
1510176730529.9875,4.39453125,-965.8203125,30.2734375,68.84765625,10.25390625
1510176730533.8938,29.296875,-864.2578125,58.10546875,239.2578125,32.71484375
1510176730537.8,28.80859375,-893.5546875,32.71484375,88.37890625,39.0625
1510176730541.7063,5.37109375,-978.515625,10.25390625,-73.2421875,0.48828125
1510176730545.6125,2.9296875,-981.4453125,41.015625,41.50390625,-20.5078125
1510176730547.4822,6.34765625,-883.30078125,72.75390625,225.5859375,-2.9296875
1510176730551.3884,-2.44140625,-870.60546875,51.7578125,137.6953125,34.66796875
1510176730555.2947,-8.30078125,-980.95703125,14.16015625,-52.734375,-0.9765625
1510176730559.201,9.27734375,-971.19140625,22.94921875,-6.34765625,-3.90625
1510176730563.1072,32.2265625,-948.73046875,56.15234375,211.42578125,-17.578125
1510176730567.0134,47.36328125,-958.984375,46.38671875,193.359375,-55.17578125
1510176730570.9197,10.7421875,-968.26171875,16.6015625,-16.11328125,22.94921875
1510176730574.826,-1.46484375,-981.93359375,23.92578125,-50.29296875,97.16796875
1510176730578.7322,24.4140625,-931.640625,58.59375,167.96875,57.6171875
1510176730582.6384,17.578125,-875.9765625,58.10546875,240.234375,-5.37109375
1510176730586.5447,10.25390625,-958.49609375,28.80859375,27.34375,11.23046875
1510176730590.451,15.625,-980.46875,11.71875,-88.8671875,34.66796875
1510176730592.517,41.50390625,-962.40234375,34.1796875,85.9375,-4.39453125
1510176730596.4233,61.5234375,-910.64453125,54.6875,250.0,17.08984375
1510176730600.3296,33.203125,-949.21875,32.2265625,83.984375,5.859375
1510176730604.2358,0.0,-979.00390625,14.6484375,-75.1953125,-20.99609375
1510176730608.142,5.37109375,-965.8203125,30.76171875,49.31640625,23.4375
1510176730612.0483,26.85546875,-971.19140625,45.41015625,244.62890625,4.39453125
1510176730615.9546,23.4375,-970.21484375,34.1796875,152.34375,20.5078125
1510176730619.8608,9.765625,-968.75,23.4375,-57.6171875,-10.25390625
1510176730623.767,24.90234375,-972.65625,25.390625,-18.06640625,-85.44921875
1510176730627.6733,44.43359375,-965.8203125,45.41015625,199.21875,-24.4140625
1510176730631.5796,35.15625,-948.73046875,46.875,199.70703125,51.26953125
1510176730635.4858,20.01953125,-965.33203125,18.06640625,7.32421875,-25.390625
1510176730652.5603,24.4140625,-974.609375,9.765625,-36.62109375,0.9765625
1510176730656.4666,38.0859375,-965.8203125,35.64453125,141.6015625,25.87890625
1510176730660.3728,29.296875,-938.4765625,48.828125,234.86328125,-3.90625
1510176730664.279,-1.953125,-957.03125,26.3671875,55.6640625,16.11328125
1510176730668.1853,-10.7421875,-973.6328125,6.34765625,-75.1953125,-3.90625
1510176730672.0916,21.97265625,-972.16796875,15.13671875,76.171875,-34.66796875
1510176730675.9978,34.1796875,-951.66015625,39.0625,226.5625,-20.5078125
1510176730679.904,-6.34765625,-949.70703125,31.73828125,88.37890625,37.109375
1510176730683.8103,-17.578125,-970.703125,2.44140625,-69.82421875,13.18359375
1510176730687.7166,-15.13671875,-978.515625,11.23046875,28.3203125,-2.44140625
1510176730691.6228,12.20703125,-923.828125,49.31640625,226.5625,18.06640625
1510176730695.529,27.83203125,-916.015625,41.9921875,170.8984375,28.80859375
1510176730697.609,0.9765625,-973.14453125,9.765625,-28.3203125,10.7421875
1510176730701.5151,18.5546875,-978.02734375,13.18359375,-26.3671875,-31.73828125
1510176730705.4214,30.2734375,-940.4296875,41.015625,178.7109375,-15.625
1510176730709.3276,37.59765625,-915.0390625,50.29296875,213.37890625,11.71875
1510176730713.234,19.04296875,-968.75,20.5078125,15.625,6.34765625
1510176730717.1401,-2.9296875,-973.6328125,4.39453125,-59.08203125,7.32421875
1510176730721.0464,21.97265625,-966.796875,28.80859375,136.71875,29.296875
1510176730724.9526,44.43359375,-958.984375,47.36328125,260.25390625,-6.34765625
1510176730728.859,8.7890625,-966.30859375,16.11328125,74.21875,-15.13671875
1510176730732.7651,-32.2265625,-972.16796875,-8.30078125,-94.7265625,-4.39453125
1510176730736.6714,-14.6484375,-972.65625,28.3203125,44.921875,-10.7421875
1510176730740.5776,4.8828125,-929.19921875,51.7578125,228.02734375,14.6484375
1510176730742.6262,1.46484375,-943.359375,26.3671875,109.86328125,-24.4140625
1510176730746.5325,-4.39453125,-976.5625,9.27734375,-64.453125,-34.1796875
1510176730750.4387,-8.7890625,-973.14453125,27.34375,-0.48828125,-13.671875
1510176730754.345,28.3203125,-938.96484375,52.24609375,204.58984375,-30.2734375
1510176730758.2512,58.59375,-938.4765625,44.921875,175.78125,-24.4140625
1510176730762.1575,19.04296875,-975.09765625,17.08984375,-15.625,-26.85546875
1510176730766.0637,7.32421875,-971.19140625,18.5546875,-31.73828125,-27.83203125
1510176730769.97,33.203125,-957.03125,56.15234375,182.6171875,-10.7421875
1510176730773.8762,37.109375,-957.03125,61.03515625,229.4921875,-16.6015625
1510176730777.7825,14.6484375,-972.65625,30.2734375,-10.7421875,16.11328125
1510176730781.6887,-34.1796875,-969.7265625,15.625,-110.83984375,41.9921875
1510176730785.595,-28.80859375,-970.21484375,34.1796875,87.890625,-19.04296875
1510176730787.66,40.0390625,-970.21484375,49.8046875,241.2109375,-38.57421875
1510176730791.5662,20.99609375,-969.7265625,32.2265625,69.3359375,50.29296875
1510176730795.4724,-0.48828125,-970.703125,6.8359375,-79.1015625,42.48046875
1510176730799.3787,28.80859375,-971.19140625,17.08984375,54.19921875,-16.11328125
1510176730803.285,53.22265625,-953.125,45.8984375,245.1171875,-3.90625
1510176730807.1912,48.33984375,-960.9375,33.203125,144.04296875,16.6015625
1510176730811.0974,7.8125,-972.65625,10.25390625,-65.4296875,44.43359375
1510176730815.0037,-3.90625,-970.21484375,14.6484375,-23.92578125,39.0625
1510176730818.91,13.671875,-965.33203125,40.0390625,187.98828125,32.2265625
1510176730822.8162,21.97265625,-963.37890625,50.78125,175.29296875,5.37109375
1510176730826.7224,33.69140625,-963.8671875,26.85546875,-18.06640625,-16.6015625
1510176730830.6287,41.50390625,-985.83984375,17.578125,-61.03515625,12.6953125
1510176730832.6912,40.52734375,-920.41015625,47.36328125,143.06640625,65.91796875
1510176730836.5974,48.33984375,-850.09765625,58.10546875,234.375,66.89453125
1510176730840.5037,61.03515625,-955.56640625,25.390625,35.15625,30.2734375
1510176730844.41,19.04296875,-979.00390625,6.8359375,-79.58984375,24.90234375
1510176730848.3162,-5.859375,-961.42578125,30.76171875,98.14453125,13.671875
1510176730852.2224,36.62109375,-967.28515625,53.22265625,244.62890625,61.5234375
1510176730856.1287,49.8046875,-969.23828125,32.71484375,75.1953125,74.70703125
1510176730860.035,2.44140625,-967.28515625,2.44140625,-80.56640625,35.15625
1510176730863.9412,-6.8359375,-983.3984375,25.390625,37.59765625,61.03515625
1510176730867.8474,63.4765625,-872.0703125,61.5234375,244.140625,28.3203125
1510176730871.7537,55.17578125,-866.69921875,41.50390625,169.43359375,-8.30078125
1510176730875.66,22.94921875,-971.6796875,10.25390625,-50.78125,-13.18359375
1510176730877.7266,37.109375,-991.2109375,19.04296875,-28.3203125,1.46484375
1510176730881.6328,39.0625,-891.6015625,48.828125,182.12890625,-3.41796875
1510176730885.539,37.59765625,-819.3359375,51.26953125,224.609375,55.17578125
1510176730889.4453,17.08984375,-966.30859375,23.4375,22.4609375,66.89453125
1510176730893.3516,12.20703125,-977.5390625,12.20703125,-74.70703125,17.578125
1510176730897.2578,60.546875,-963.37890625,40.0390625,117.67578125,-1.953125
1510176730901.164,72.75390625,-972.16796875,53.22265625,230.95703125,-26.3671875
1510176730905.0703,39.0625,-966.30859375,26.85546875,55.6640625,-10.25390625
1510176730908.9766,13.18359375,-976.07421875,21.484375,-75.68359375,-24.4140625
1510176730912.8828,34.66796875,-958.0078125,44.921875,83.49609375,-26.3671875
1510176730916.789,57.6171875,-879.39453125,62.01171875,257.8125,2.44140625
1510176730920.6953,35.64453125,-920.41015625,41.50390625,102.5390625,1.953125
1510176730922.2534,4.8828125,-971.6796875,16.11328125,-90.33203125,-26.85546875
1510176730926.1597,16.6015625,-979.4921875,24.90234375,12.6953125,-48.33984375
1510176730930.066,32.2265625,-935.05859375,53.22265625,231.4453125,-51.26953125
1510176730933.9722,22.94921875,-873.53515625,52.24609375,183.10546875,1.953125
1510176730937.8784,-9.765625,-956.54296875,20.99609375,-40.52734375,-18.5546875
1510176730941.7847,-16.11328125,-977.05078125,13.671875,-42.48046875,-37.59765625
1510176730945.691,25.390625,-969.7265625,39.55078125,170.41015625,-0.48828125
1510176730949.5972,23.92578125,-948.73046875,52.24609375,198.2421875,0.9765625
1510176730953.5034,0.48828125,-939.453125,34.66796875,18.06640625,6.8359375
1510176730957.4097,23.92578125,-992.1875,14.6484375,-62.01171875,3.41796875
1510176730961.316,41.9921875,-897.94921875,36.62109375,116.2109375,52.24609375
1510176730965.2222,6.8359375,-748.046875,55.17578125,234.375,72.265625
1510176730967.7864,-17.578125,-870.60546875,31.25,51.7578125,35.15625
1510176730971.6926,-5.859375,-984.86328125,6.34765625,-92.7734375,-46.38671875
1510176730975.5989,12.20703125,-973.6328125,25.87890625,53.22265625,-54.6875
1510176730979.5051,51.26953125,-830.078125,56.640625,220.21484375,-8.30078125
1510176730983.4114,45.8984375,-854.00390625,37.109375,108.3984375,6.8359375
1510176730987.3176,-0.9765625,-979.4921875,11.23046875,-69.3359375,26.85546875
1510176730991.2239,-24.90234375,-993.1640625,20.5078125,-15.625,23.4375
1510176730995.1301,3.90625,-830.078125,54.19921875,194.3359375,73.73046875
1510176730999.0364,28.80859375,-781.73828125,52.734375,172.8515625,51.26953125
1510176731002.9426,6.8359375,-971.6796875,17.578125,-30.2734375,11.23046875
1510176731006.8489,3.90625,-985.83984375,11.71875,-70.80078125,43.9453125
1510176731010.7551,19.04296875,-925.78125,42.48046875,137.20703125,9.765625
1510176731027.3298,23.4375,-861.328125,51.26953125,217.7734375,-9.27734375
1510176731031.236,12.20703125,-953.125,25.87890625,35.64453125,6.8359375
1510176731035.1423,8.30078125,-979.00390625,13.18359375,-72.265625,-30.2734375
1510176731039.0486,4.8828125,-964.35546875,36.1328125,100.5859375,-56.15234375
1510176731042.9548,3.41796875,-969.7265625,57.6171875,260.25390625,-29.78515625
1510176731046.861,3.41796875,-968.75,31.73828125,83.49609375,-26.3671875
1510176731050.7673,0.48828125,-970.703125,6.34765625,-62.01171875,-31.73828125
1510176731054.6736,3.90625,-971.6796875,26.85546875,60.05859375,-10.25390625
1510176731058.5798,19.53125,-949.70703125,47.36328125,224.12109375,-5.37109375
1510176731062.486,18.5546875,-956.54296875,26.3671875,138.18359375,-11.23046875
1510176731066.3923,3.90625,-974.12109375,2.9296875,-65.4296875,-5.37109375
1510176731070.2986,-6.8359375,-969.23828125,19.04296875,-34.1796875,17.08984375
1510176731072.3599,-7.8125,-964.35546875,41.9921875,187.01171875,22.94921875
1510176731076.266,-24.4140625,-966.796875,40.52734375,193.359375,21.97265625
1510176731080.1724,-4.8828125,-971.19140625,24.4140625,-6.34765625,20.99609375
1510176731084.0786,31.25,-969.7265625,17.578125,-36.62109375,-4.39453125
1510176731087.9849,27.83203125,-970.21484375,41.50390625,151.85546875,30.2734375
1510176731091.891,16.11328125,-970.21484375,49.8046875,196.77734375,22.94921875
1510176731095.7974,-13.671875,-969.7265625,29.296875,1.953125,58.10546875
1510176731099.7036,-29.296875,-970.21484375,18.06640625,-102.5390625,113.28125
1510176731103.6099,-25.87890625,-970.703125,34.1796875,60.05859375,73.2421875
1510176731107.516,-16.11328125,-961.9140625,53.7109375,196.2890625,42.48046875
1510176731111.4224,-25.390625,-965.8203125,41.9921875,48.828125,42.96875
1510176731115.3286,-43.45703125,-969.7265625,19.53125,-108.3984375,21.97265625
1510176731117.3943,-22.4609375,-974.609375,18.06640625,-5.37109375,-27.34375
1510176731121.3005,2.44140625,-954.1015625,45.41015625,182.6171875,-8.7890625
1510176731125.2068,-5.37109375,-937.98828125,48.828125,122.0703125,21.97265625
1510176731129.113,-48.828125,-969.7265625,18.06640625,-63.96484375,-11.23046875
1510176731133.0193,-52.24609375,-971.6796875,16.11328125,-58.59375,-61.5234375
1510176731136.9255,6.34765625,-967.28515625,40.0390625,164.55078125,-48.828125
1510176731140.8318,3.90625,-969.23828125,48.828125,181.15234375,-14.6484375
1510176731144.738,-35.64453125,-968.75,23.92578125,-14.16015625,-6.34765625
1510176731148.6443,-12.6953125,-970.703125,3.41796875,-86.42578125,-24.90234375
1510176731152.5505,13.18359375,-971.6796875,40.0390625,99.609375,3.90625
1510176731156.4568,5.37109375,-908.69140625,70.80078125,231.93359375,52.734375
1510176731160.363,2.44140625,-917.48046875,32.71484375,59.5703125,6.8359375
1510176731162.4238,7.8125,-982.91015625,11.23046875,-82.51953125,-35.15625
1510176731166.33,20.5078125,-960.9375,39.0625,78.61328125,35.15625
1510176731170.2363,26.3671875,-806.640625,60.546875,253.90625,55.6640625
1510176731174.1426,10.7421875,-850.5859375,36.62109375,109.86328125,46.38671875
1510176731178.0488,-5.37109375,-984.86328125,11.23046875,-69.82421875,37.59765625
1510176731181.955,2.44140625,-974.12109375,18.5546875,4.39453125,-6.34765625
1510176731185.8613,34.66796875,-926.7578125,47.8515625,215.33203125,8.30078125
1510176731189.7676,25.87890625,-917.48046875,36.62109375,172.36328125,13.671875
1510176731193.6738,-2.44140625,-968.75,5.37109375,-46.38671875,4.8828125
1510176731197.58,-7.8125,-988.28125,15.625,-67.87109375,1.953125
1510176731201.4863,13.671875,-891.6015625,46.875,160.15625,13.18359375
1510176731205.3926,33.69140625,-859.86328125,51.26953125,223.14453125,32.71484375
1510176731207.9602,15.13671875,-976.5625,20.01953125,16.6015625,21.484375
1510176731211.8665,-11.71875,-973.14453125,12.20703125,-67.87109375,26.85546875
1510176731215.7727,2.9296875,-962.40234375,40.0390625,115.72265625,1.953125
1510176731219.679,39.0625,-961.42578125,55.6640625,235.3515625,-22.94921875
1510176731223.5852,31.73828125,-970.21484375,31.25,71.2890625,24.90234375
1510176731227.4915,14.16015625,-970.703125,4.8828125,-71.77734375,25.87890625
1510176731231.3977,26.85546875,-969.7265625,27.83203125,63.96484375,5.859375
1510176731235.304,41.50390625,-970.21484375,48.828125,237.3046875,-20.01953125
1510176731239.2102,12.20703125,-970.21484375,35.64453125,103.02734375,-18.06640625
1510176731243.1165,-25.390625,-970.21484375,21.484375,-72.75390625,-11.23046875
1510176731247.0227,-33.69140625,-970.21484375,28.3203125,12.6953125,27.83203125
1510176731250.929,1.953125,-970.21484375,46.38671875,216.30859375,-8.7890625
1510176731252.4922,14.6484375,-970.21484375,45.41015625,169.921875,-49.31640625
1510176731256.3984,-23.92578125,-970.21484375,20.5078125,-34.66796875,57.12890625
1510176731260.3047,-1.953125,-970.21484375,-0.48828125,-48.33984375,22.4609375
1510176731264.211,22.94921875,-970.21484375,23.4375,149.90234375,-40.52734375
1510176731268.1172,11.23046875,-970.21484375,41.50390625,207.03125,-18.06640625
1510176731272.0234,0.48828125,-968.75,20.99609375,13.18359375,-21.484375
1510176731275.9297,-3.41796875,-971.19140625,-0.9765625,-118.65234375,13.671875
1510176731279.836,16.11328125,-970.703125,16.11328125,83.0078125,41.50390625
1510176731283.7422,25.390625,-938.4765625,48.828125,255.859375,43.9453125
1510176731287.6484,4.8828125,-954.58984375,27.83203125,68.84765625,20.01953125
1510176731291.5547,-4.39453125,-975.5859375,4.39453125,-76.66015625,-20.5078125
1510176731295.461,37.59765625,-967.7734375,17.08984375,43.9453125,-22.94921875
1510176731297.7104,66.40625,-970.703125,37.109375,224.12109375,-19.53125
1510176731301.6167,43.9453125,-970.21484375,32.71484375,131.8359375,2.9296875
1510176731305.523,17.08984375,-970.21484375,10.25390625,-74.21875,5.859375
1510176731309.4292,17.578125,-970.21484375,10.7421875,-24.90234375,-24.90234375
1510176731313.3354,49.8046875,-970.21484375,36.62109375,209.9609375,-4.8828125
1510176731317.2417,55.17578125,-970.21484375,39.55078125,201.66015625,45.41015625
1510176731321.148,32.2265625,-970.21484375,-2.9296875,-14.16015625,26.3671875
1510176731325.0542,12.20703125,-970.21484375,-12.20703125,-88.37890625,28.80859375
1510176731328.9604,4.8828125,-970.21484375,33.203125,112.3046875,24.4140625
1510176731332.8667,27.83203125,-969.7265625,42.48046875,216.30859375,-28.3203125
1510176731336.773,50.78125,-970.21484375,11.23046875,27.83203125,33.203125
1510176731340.6792,34.1796875,-970.21484375,-2.44140625,-99.12109375,25.390625
1510176731342.244,33.69140625,-970.21484375,18.06640625,51.7578125,-34.1796875
1510176731346.1501,70.80078125,-970.21484375,35.15625,236.81640625,-15.13671875
1510176731350.0564,32.71484375,-970.21484375,16.11328125,96.6796875,20.99609375
1510176731353.9626,-3.90625,-970.21484375,-0.48828125,-71.77734375,44.43359375
1510176731357.869,45.8984375,-970.21484375,15.625,44.921875,6.34765625
1510176731361.7751,62.01171875,-970.21484375,36.1328125,252.44140625,-7.32421875
1510176731365.6814,70.80078125,-969.7265625,22.94921875,187.98828125,24.4140625
1510176731369.5876,69.82421875,-970.21484375,3.41796875,-27.34375,-25.87890625
1510176731373.494,68.84765625,-970.21484375,8.30078125,-15.13671875,-45.8984375
1510176731377.4001,81.0546875,-970.21484375,36.1328125,191.40625,-21.484375
1510176731381.3064,64.453125,-970.21484375,39.0625,214.84375,39.0625
1510176731385.2126,33.69140625,-969.7265625,11.71875,17.08984375,43.45703125
1510176731402.787,23.4375,-970.21484375,1.953125,-64.94140625,-3.41796875
1510176731406.6934,59.08203125,-970.21484375,28.3203125,125.9765625,-20.5078125
1510176731410.5996,72.75390625,-970.21484375,42.96875,240.72265625,30.76171875
1510176731414.5059,66.89453125,-970.21484375,15.625,51.26953125,39.55078125
1510176731418.412,49.8046875,-970.21484375,2.44140625,-92.28515625,-5.37109375
1510176731422.3184,45.41015625,-970.21484375,11.23046875,54.6875,-18.06640625
1510176731426.2246,67.87109375,-970.21484375,34.1796875,237.79296875,-26.85546875
1510176731430.1309,61.03515625,-970.21484375,31.73828125,103.02734375,19.04296875
1510176731434.037,40.0390625,-970.21484375,7.8125,-83.49609375,41.9921875
1510176731437.9434,46.875,-970.21484375,11.71875,-8.7890625,-4.8828125
1510176731441.8496,37.109375,-970.21484375,38.0859375,185.546875,21.97265625
1510176731445.7559,35.15625,-970.21484375,32.71484375,130.37109375,65.91796875
1510176731447.3367,24.4140625,-970.21484375,-4.8828125,-83.0078125,0.48828125
1510176731451.243,19.53125,-970.21484375,-1.953125,-83.49609375,6.34765625
1510176731455.1492,65.91796875,-970.21484375,32.71484375,146.484375,-8.30078125
1510176731459.0554,77.1484375,-970.21484375,41.50390625,211.9140625,-62.5
1510176731462.9617,49.8046875,-970.21484375,15.625,8.30078125,-5.37109375
1510176731466.868,10.25390625,-970.21484375,-0.9765625,-105.95703125,40.0390625
1510176731470.7742,5.37109375,-969.7265625,28.80859375,89.84375,17.578125
1510176731474.6804,44.43359375,-969.7265625,56.15234375,250.48828125,15.13671875
1510176731478.5867,39.0625,-970.21484375,29.78515625,86.42578125,6.34765625
1510176731482.493,11.23046875,-970.21484375,5.37109375,-81.54296875,39.0625
1510176731486.3992,-1.953125,-969.7265625,26.85546875,65.91796875,99.12109375
1510176731490.3054,28.80859375,-969.7265625,57.12890625,272.4609375,86.42578125
1510176731492.4604,34.1796875,-970.21484375,37.59765625,166.015625,63.96484375
1510176731496.3667,7.8125,-970.21484375,2.9296875,-15.13671875,-20.5078125
1510176731500.273,35.15625,-970.21484375,10.7421875,34.66796875,-38.0859375
1510176731504.1792,27.83203125,-969.7265625,36.1328125,247.55859375,71.2890625
1510176731508.0854,0.9765625,-969.7265625,24.90234375,229.98046875,-7.8125
1510176731511.9917,-19.04296875,-969.7265625,-2.44140625,14.16015625,-57.6171875
1510176731515.898,-4.39453125,-971.6796875,3.41796875,-30.76171875,54.19921875
1510176731519.8042,26.85546875,-961.42578125,33.69140625,192.3828125,47.8515625
1510176731523.7104,28.80859375,-961.42578125,31.73828125,262.20703125,-7.8125
1510176731527.6167,10.7421875,-971.6796875,12.20703125,56.15234375,23.92578125
1510176731531.523,-3.90625,-967.28515625,5.859375,-45.41015625,-22.4609375
1510176731535.4292,11.23046875,-979.00390625,24.4140625,132.32421875,-17.578125
1510176731537.4932,26.3671875,-923.33984375,44.921875,292.48046875,29.78515625
1510176731541.3994,21.484375,-909.66796875,23.92578125,125.0,33.203125
1510176731545.3057,21.97265625,-970.703125,0.0,-41.9921875,-5.859375
1510176731549.212,16.11328125,-990.72265625,13.671875,86.42578125,-39.55078125
1510176731553.1182,29.296875,-835.9375,45.41015625,265.625,58.10546875
1510176731557.0244,47.8515625,-838.37890625,34.1796875,168.45703125,79.58984375
1510176731560.9307,11.23046875,-985.3515625,0.48828125,-15.13671875,-11.71875
1510176731564.837,-16.6015625,-976.5625,4.39453125,11.71875,3.41796875
1510176731568.7432,-8.30078125,-941.40625,32.2265625,213.37890625,31.73828125
1510176731572.6494,15.625,-884.765625,38.57421875,208.0078125,-14.16015625
1510176731576.5557,-6.8359375,-948.2421875,13.671875,19.53125,-12.20703125
1510176731580.462,-32.2265625,-989.74609375,4.8828125,-41.9921875,62.98828125
1510176731582.5266,22.94921875,-925.78125,29.296875,139.16015625,33.69140625
1510176731586.4329,47.36328125,-805.6640625,39.0625,234.86328125,-36.1328125
1510176731590.339,0.0,-895.99609375,12.6953125,51.7578125,8.7890625
1510176731594.2454,-31.25,-990.234375,-5.37109375,-59.08203125,-3.41796875
1510176731598.1516,-19.53125,-949.70703125,20.5078125,94.7265625,-21.97265625
1510176731602.0579,17.08984375,-918.45703125,43.9453125,255.37109375,27.34375
1510176731605.964,17.578125,-955.078125,28.3203125,102.05078125,26.3671875
1510176731609.8704,6.8359375,-969.7265625,-3.41796875,-70.3125,-29.296875
1510176731613.7766,1.953125,-988.28125,8.7890625,8.7890625,5.37109375
1510176731617.6829,31.25,-852.05078125,51.26953125,217.28515625,27.34375
1510176731621.589,49.8046875,-845.703125,40.0390625,196.2890625,-12.20703125
1510176731625.4954,29.78515625,-976.5625,9.27734375,-23.4375,-39.0625
1510176731627.5583,22.4609375,-996.58203125,12.20703125,-38.0859375,-7.8125
1510176731631.4646,22.94921875,-857.421875,47.36328125,182.12890625,22.94921875
1510176731635.3708,21.484375,-750.48828125,49.31640625,223.6328125,78.61328125
1510176731639.277,10.25390625,-955.078125,17.08984375,11.23046875,42.96875
1510176731643.1833,16.6015625,-982.421875,9.27734375,-71.77734375,-30.2734375
1510176731647.0896,15.13671875,-958.984375,32.2265625,137.20703125,-30.2734375
1510176731650.9958,24.90234375,-968.26171875,42.96875,254.8828125,-28.80859375
1510176731654.902,10.25390625,-965.8203125,16.6015625,41.50390625,-37.59765625
1510176731658.8083,-30.76171875,-978.515625,10.25390625,-107.421875,-60.05859375
1510176731662.7146,6.34765625,-950.1953125,36.1328125,64.453125,-36.62109375
1510176731666.6208,60.05859375,-895.99609375,58.59375,251.953125,15.625
1510176731670.527,48.828125,-945.80078125,39.55078125,108.3984375,11.23046875
1510176731672.59,8.7890625,-971.19140625,12.20703125,-77.1484375,15.625
1510176731676.4963,11.23046875,-975.5859375,19.53125,8.30078125,5.37109375
1510176731680.4026,35.15625,-946.77734375,49.31640625,206.54296875,3.41796875
1510176731684.3088,10.7421875,-924.8046875,47.8515625,173.828125,21.97265625
1510176731688.215,-20.99609375,-971.19140625,20.5078125,-34.66796875,33.69140625
1510176731692.1213,-17.578125,-971.6796875,17.578125,-57.6171875,39.0625
1510176731696.0276,7.32421875,-968.26171875,32.71484375,158.69140625,18.06640625
1510176731699.9338,24.90234375,-971.19140625,40.0390625,192.87109375,-11.23046875
1510176731703.84,14.6484375,-965.8203125,28.3203125,-4.39453125,-7.8125
1510176731707.7463,2.44140625,-977.5390625,11.23046875,-90.33203125,32.2265625
1510176731711.6526,13.671875,-953.61328125,32.71484375,96.19140625,41.50390625
1510176731715.5588,36.1328125,-885.25390625,52.734375,241.2109375,8.7890625
1510176731717.6204,19.04296875,-942.87109375,33.203125,68.84765625,-24.4140625
1510176731721.5266,0.48828125,-979.00390625,10.7421875,-82.51953125,24.4140625
1510176731725.4329,10.7421875,-970.21484375,27.83203125,51.7578125,9.27734375
1510176731729.339,0.9765625,-939.453125,55.6640625,241.69921875,-51.7578125
1510176731733.2454,19.04296875,-944.3359375,43.45703125,137.6953125,-19.04296875
1510176731737.1516,36.1328125,-968.75,12.6953125,-56.640625,44.43359375
1510176731741.0579,14.6484375,-987.79296875,13.671875,-11.71875,48.33984375
1510176731744.964,23.4375,-890.13671875,57.6171875,195.3125,42.96875
1510176731748.8704,47.8515625,-815.4296875,57.6171875,177.24609375,86.42578125
1510176731752.7766,45.8984375,-950.68359375,18.5546875,1.46484375,64.94140625
1510176731756.6829,15.625,-992.1875,22.94921875,-31.73828125,2.44140625
1510176731760.589,24.4140625,-916.015625,53.7109375,162.109375,3.90625
1510176731778.173,48.828125,-873.046875,52.734375,251.46484375,-14.16015625
1510176731782.0793,13.671875,-957.51953125,22.94921875,44.43359375,-20.5078125
1510176731785.9856,-10.7421875,-983.88671875,7.8125,-80.078125,-35.15625
1510176731789.8918,11.23046875,-949.70703125,33.69140625,96.6796875,-22.94921875
1510176731793.798,19.53125,-874.0234375,53.22265625,250.48828125,26.3671875
1510176731797.7043,-7.8125,-939.453125,26.85546875,96.6796875,18.5546875
1510176731801.6106,-9.765625,-979.98046875,7.8125,-68.84765625,58.59375
1510176731805.5168,-0.48828125,-973.6328125,27.34375,31.25,54.19921875
1510176731809.423,7.8125,-916.50390625,49.31640625,231.93359375,5.859375
1510176731813.3293,34.66796875,-916.9921875,23.92578125,142.578125,29.296875
1510176731817.2356,23.4375,-979.98046875,-2.44140625,-66.89453125,-10.25390625
1510176731821.1418,7.32421875,-969.7265625,7.8125,-38.0859375,-26.3671875
1510176731822.695,14.16015625,-947.265625,34.1796875,172.36328125,-2.9296875
1510176731826.6013,18.06640625,-957.51953125,33.69140625,199.70703125,-38.0859375
1510176731830.5076,2.44140625,-974.609375,5.859375,-3.41796875,-53.7109375
1510176731834.4138,-11.71875,-968.26171875,4.8828125,-77.1484375,0.48828125
1510176731838.32,-7.8125,-970.703125,32.2265625,119.62890625,78.125
1510176731842.2263,1.46484375,-970.21484375,31.25,207.51953125,-0.48828125
1510176731846.1326,-12.20703125,-970.21484375,4.39453125,31.73828125,-32.2265625
1510176731850.0388,-15.13671875,-970.21484375,-5.859375,-71.2890625,13.671875
1510176731853.945,6.34765625,-970.21484375,14.16015625,95.703125,29.78515625
1510176731857.8513,25.390625,-970.703125,30.76171875,245.1171875,56.15234375
1510176731861.7576,12.6953125,-967.28515625,20.99609375,85.9375,57.6171875
1510176731865.6638,-7.8125,-966.30859375,4.8828125,-85.44921875,43.45703125
1510176731868.2307,-4.39453125,-986.328125,20.99609375,16.11328125,29.78515625
1510176731872.137,21.484375,-824.70703125,51.26953125,219.7265625,20.01953125
1510176731876.0432,16.6015625,-800.29296875,43.45703125,155.2734375,28.3203125
1510176731879.9495,12.6953125,-973.6328125,9.765625,-39.55078125,28.80859375
1510176731883.8557,17.08984375,-977.05078125,7.32421875,-27.83203125,-39.55078125
1510176731887.762,8.7890625,-949.21875,40.0390625,169.43359375,-37.109375
1510176731891.6682,2.9296875,-940.4296875,41.9921875,204.1015625,7.32421875
1510176731895.5745,-2.44140625,-962.40234375,16.11328125,1.953125,11.71875
1510176731899.4807,-5.859375,-988.28125,-6.8359375,-96.19140625,3.90625
1510176731903.387,11.71875,-910.64453125,15.13671875,99.609375,14.6484375
1510176731907.2932,31.73828125,-764.16015625,44.43359375,230.95703125,17.08984375
1510176731911.1995,3.41796875,-895.99609375,18.06640625,52.24609375,-27.34375
1510176731912.2588,-20.5078125,-981.4453125,3.90625,-84.9609375,-29.296875
1510176731916.165,-13.18359375,-983.3984375,25.390625,41.9921875,-2.44140625
1510176731920.0713,2.9296875,-870.1171875,45.8984375,208.0078125,27.34375
1510176731923.9775,-13.18359375,-831.0546875,29.78515625,98.14453125,57.6171875
1510176731927.8838,-19.04296875,-972.16796875,5.859375,-80.078125,50.78125
1510176731931.79,14.16015625,-989.74609375,19.04296875,2.44140625,28.3203125
1510176731935.6963,35.64453125,-889.16015625,55.17578125,205.078125,8.7890625
1510176731939.6025,27.83203125,-866.2109375,49.31640625,174.31640625,2.44140625
1510176731943.5088,13.18359375,-969.7265625,14.16015625,-27.83203125,-4.39453125
1510176731947.415,7.32421875,-997.0703125,22.94921875,-64.453125,-14.16015625
1510176731951.3213,9.765625,-854.4921875,55.6640625,141.6015625,30.2734375
1510176731955.2275,17.08984375,-813.96484375,57.6171875,213.8671875,23.4375
1510176731957.7917,13.18359375,-975.5859375,29.296875,18.5546875,-32.2265625
1510176731961.698,7.32421875,-985.83984375,19.04296875,-87.40234375,-0.9765625
1510176731965.6042,41.015625,-918.9453125,45.8984375,107.91015625,21.97265625
1510176731969.5105,66.40625,-852.5390625,66.89453125,265.13671875,34.66796875
1510176731973.4167,30.76171875,-952.63671875,40.0390625,89.35546875,12.20703125
1510176731977.323,4.8828125,-978.515625,19.04296875,-73.73046875,-33.69140625
1510176731981.2292,20.5078125,-964.84375,35.64453125,51.26953125,-52.734375
1510176731985.1355,31.25,-970.703125,52.24609375,221.6796875,-8.7890625
1510176731989.0417,16.6015625,-970.703125,41.9921875,112.3046875,29.296875
1510176731992.948,-10.7421875,-964.84375,25.87890625,-67.87109375,10.7421875
1510176731996.8542,8.30078125,-984.86328125,26.3671875,-4.39453125,-47.8515625
1510176732000.7605,52.24609375,-912.109375,52.24609375,196.77734375,-31.25
1510176732002.3433,39.0625,-872.0703125,55.17578125,187.5,21.97265625
1510176732006.2495,11.71875,-964.35546875,24.90234375,-3.41796875,3.41796875
1510176732010.1558,7.8125,-984.86328125,9.765625,-62.01171875,-23.4375
1510176732014.062,20.5078125,-940.91796875,40.52734375,141.11328125,-30.76171875
1510176732017.9683,30.2734375,-867.67578125,56.15234375,223.14453125,23.4375
1510176732021.8745,15.625,-946.2890625,21.484375,20.99609375,22.4609375
1510176732025.7808,-10.25390625,-980.46875,0.9765625,-80.56640625,-24.4140625
1510176732029.687,-12.20703125,-968.26171875,27.83203125,85.44921875,17.08984375
1510176732033.5933,5.859375,-922.8515625,69.82421875,226.07421875,0.48828125
1510176732037.4995,12.6953125,-930.6640625,51.7578125,67.3828125,3.41796875
1510176732041.4058,5.859375,-974.12109375,13.671875,-92.7734375,-12.20703125
1510176732045.312,5.37109375,-981.93359375,33.203125,26.85546875,-7.8125
1510176732047.373,12.20703125,-876.953125,65.91796875,232.421875,45.8984375
1510176732051.2793,17.08984375,-869.140625,54.19921875,137.20703125,53.7109375
1510176732055.1855,-7.8125,-979.00390625,28.80859375,-61.03515625,115.234375
1510176732059.0918,-22.94921875,-974.12109375,32.2265625,-32.71484375,108.3984375
1510176732062.998,2.44140625,-941.40625,60.05859375,178.7109375,-5.859375
1510176732066.9043,4.8828125,-943.359375,60.05859375,200.68359375,6.34765625
1510176732070.8105,-20.99609375,-971.6796875,29.78515625,-5.37109375,29.78515625
1510176732074.7168,-19.04296875,-975.5859375,24.90234375,-69.3359375,-8.7890625
1510176732078.623,22.94921875,-954.58984375,57.6171875,125.9765625,-38.57421875
1510176732082.5293,44.43359375,-906.25,71.2890625,238.28125,-44.43359375
1510176732086.4355,25.87890625,-952.1484375,42.48046875,53.22265625,7.32421875
1510176732090.3418,5.859375,-981.93359375,28.3203125,-90.8203125,7.32421875
1510176732092.4067,-6.8359375,-959.47265625,57.12890625,71.77734375,-31.25
1510176732096.313,10.7421875,-903.80859375,75.68359375,253.90625,-18.5546875
1510176732100.2192,19.04296875,-947.75390625,52.734375,100.09765625,-10.7421875
1510176732104.1255,-10.7421875,-979.4921875,36.1328125,-88.37890625,3.90625
1510176732108.0317,-3.41796875,-965.33203125,48.828125,18.06640625,38.57421875
1510176732111.938,36.62109375,-971.19140625,70.80078125,230.95703125,29.296875
1510176732115.8442,47.8515625,-969.7265625,63.96484375,160.15625,41.015625
1510176732119.7505,15.625,-970.21484375,33.69140625,-42.96875,34.1796875
1510176732123.6567,-14.6484375,-970.21484375,32.2265625,-33.203125,2.9296875
1510176732127.563,11.71875,-965.8203125,57.12890625,186.5234375,34.1796875
1510176732131.4692,28.80859375,-968.26171875,60.05859375,206.0546875,30.76171875
1510176732135.3755,6.8359375,-970.21484375,41.50390625,-3.90625,-19.04296875
1510176732152.4844,-15.625,-969.7265625,32.71484375,-65.4296875,18.5546875
1510176732156.3906,-0.9765625,-972.16796875,57.6171875,102.05078125,5.859375
1510176732160.2969,24.90234375,-953.125,69.3359375,217.28515625,-85.44921875
1510176732164.2031,10.25390625,-958.49609375,48.828125,65.91796875,-19.53125
1510176732168.1094,0.48828125,-972.65625,26.3671875,-83.984375,2.44140625
1510176732172.0156,19.53125,-970.21484375,36.1328125,52.24609375,-19.04296875
1510176732175.9219,34.66796875,-966.796875,62.01171875,240.234375,5.37109375
1510176732179.8281,22.94921875,-963.8671875,46.38671875,123.046875,-38.57421875
1510176732183.7344,-1.953125,-962.890625,20.01953125,-74.70703125,-19.53125
1510176732187.6406,22.4609375,-991.2109375,25.390625,-3.90625,43.9453125
1510176732191.5469,52.24609375,-874.0234375,55.6640625,200.1953125,27.83203125
1510176732195.4531,29.78515625,-810.546875,56.640625,163.0859375,41.9921875
1510176732197.5002,-2.9296875,-956.0546875,21.97265625,-31.25,25.390625
1510176732201.4065,-0.48828125,-992.67578125,13.671875,-42.96875,-10.7421875
1510176732205.3127,14.6484375,-902.83203125,47.36328125,141.11328125,-10.25390625
1510176732209.219,5.37109375,-810.546875,59.08203125,201.66015625,4.39453125
1510176732213.1252,1.953125,-929.19921875,26.3671875,24.4140625,21.484375
1510176732217.0315,14.16015625,-977.5390625,1.953125,-76.171875,-15.13671875
1510176732220.9377,45.41015625,-978.02734375,31.25,105.95703125,-23.92578125
1510176732224.844,57.6171875,-872.0703125,58.59375,242.67578125,8.7890625
1510176732228.7502,41.015625,-853.02734375,28.3203125,63.96484375,51.26953125
1510176732232.6565,14.16015625,-975.5859375,-0.9765625,-100.09765625,12.6953125
1510176732236.5627,19.04296875,-990.72265625,24.4140625,30.76171875,-21.484375
1510176732240.469,26.3671875,-858.88671875,54.6875,211.9140625,17.08984375
1510176732242.5142,11.71875,-840.33203125,34.1796875,107.421875,7.8125
1510176732246.4204,16.6015625,-979.00390625,3.90625,-71.2890625,13.18359375
1510176732250.3267,-15.13671875,-985.83984375,15.625,-19.04296875,31.73828125
1510176732254.233,-33.203125,-876.953125,44.43359375,199.70703125,-19.53125
1510176732258.1392,21.484375,-866.69921875,39.55078125,196.77734375,-40.0390625
1510176732262.0454,30.76171875,-980.95703125,8.30078125,-15.13671875,-11.23046875
1510176732265.9517,18.06640625,-975.09765625,3.90625,-56.15234375,9.27734375
1510176732269.858,20.5078125,-931.15234375,35.15625,142.578125,38.57421875
1510176732273.7642,30.76171875,-933.10546875,31.25,220.703125,-6.34765625
1510176732277.6704,29.78515625,-976.07421875,5.859375,17.578125,-44.921875
1510176732281.5767,-15.625,-969.23828125,6.8359375,-107.421875,14.6484375
1510176732285.483,-46.875,-964.84375,27.83203125,69.3359375,45.8984375
1510176732287.5637,4.39453125,-945.3125,40.52734375,234.375,-14.16015625
1510176732291.47,17.578125,-953.61328125,23.4375,81.0546875,-45.41015625
1510176732295.3762,-4.8828125,-970.21484375,2.44140625,-83.0078125,-12.20703125
1510176732299.2825,15.625,-981.4453125,11.23046875,26.85546875,32.2265625
1510176732303.1887,20.99609375,-900.87890625,38.57421875,230.46875,51.7578125
1510176732307.095,15.13671875,-902.83203125,26.3671875,150.87890625,0.0
1510176732311.0012,-4.8828125,-977.05078125,1.46484375,-45.41015625,-3.41796875
1510176732314.9075,-1.46484375,-978.02734375,8.7890625,-18.06640625,21.97265625
1510176732318.8137,30.76171875,-941.89453125,34.1796875,186.03515625,31.73828125
1510176732322.72,32.71484375,-882.32421875,49.31640625,196.2890625,8.7890625
1510176732326.6262,11.71875,-946.77734375,23.92578125,2.44140625,2.9296875
1510176732330.5325,-27.34375,-990.72265625,5.859375,-66.89453125,5.859375
1510176732332.596,-14.6484375,-920.41015625,36.1328125,121.58203125,-24.90234375
1510176732336.5022,42.96875,-765.13671875,57.12890625,249.0234375,11.71875
1510176732340.4084,30.2734375,-862.79296875,29.296875,72.75390625,57.12890625
1510176732344.3147,-2.44140625,-986.328125,5.37109375,-78.61328125,6.34765625
1510176732348.221,9.27734375,-965.33203125,25.87890625,63.96484375,-27.34375
1510176732352.1272,23.92578125,-950.1953125,50.78125,248.046875,21.484375
1510176732356.0334,7.32421875,-951.66015625,35.64453125,119.62890625,17.08984375
1510176732359.9397,-7.32421875,-968.75,3.90625,-66.40625,-8.7890625
1510176732363.846,6.8359375,-984.86328125,18.5546875,11.71875,34.1796875
1510176732367.7522,13.671875,-872.0703125,55.6640625,207.03125,-11.71875
1510176732371.6584,26.85546875,-847.65625,41.9921875,163.57421875,-50.29296875
1510176732375.5647,45.41015625,-971.6796875,10.7421875,-27.34375,-40.0390625
1510176732377.6074,37.109375,-983.88671875,16.6015625,-28.80859375,-12.20703125
1510176732381.5137,31.25,-909.1796875,48.33984375,187.98828125,-9.27734375
1510176732385.42,24.90234375,-892.578125,48.828125,229.00390625,-34.1796875
1510176732389.3262,7.8125,-975.5859375,27.34375,0.9765625,41.015625
1510176732393.2324,0.0,-971.6796875,12.20703125,-87.890625,11.23046875
1510176732397.1387,15.13671875,-966.30859375,32.71484375,111.81640625,-73.2421875
1510176732401.045,31.73828125,-965.33203125,52.734375,236.328125,6.34765625
1510176732404.9512,6.34765625,-966.30859375,25.87890625,62.01171875,41.50390625
1510176732408.8574,-25.87890625,-976.5625,16.11328125,-87.40234375,27.34375
1510176732412.7637,1.953125,-958.49609375,39.0625,44.921875,35.64453125
1510176732416.67,34.66796875,-907.2265625,55.6640625,231.4453125,40.0390625
1510176732420.5762,21.97265625,-952.1484375,33.69140625,113.28125,24.4140625
1510176732422.6602,-17.578125,-975.5859375,10.7421875,-70.3125,21.484375
1510176732426.5664,-14.16015625,-970.21484375,22.4609375,-6.8359375,63.96484375
1510176732430.4727,25.390625,-958.49609375,45.8984375,198.2421875,45.41015625
1510176732434.379,37.59765625,-946.77734375,40.52734375,170.41015625,21.484375
1510176732438.2852,16.6015625,-970.703125,7.8125,-29.78515625,14.6484375
1510176732442.1914,26.3671875,-970.703125,-3.90625,-33.69140625,-13.18359375
1510176732446.0977,41.50390625,-969.23828125,29.296875,167.96875,32.2265625
1510176732450.004,25.390625,-971.19140625,53.7109375,197.265625,51.7578125
1510176732453.9102,-9.27734375,-963.8671875,37.59765625,-3.90625,-8.30078125
1510176732457.8164,-18.06640625,-979.00390625,19.04296875,-90.33203125,-9.765625
1510176732461.7227,6.34765625,-952.1484375,45.41015625,90.33203125,19.53125
1510176732465.629,0.0,-809.5703125,78.61328125,234.375,91.796875
1510176732467.6936,-32.2265625,-879.39453125,60.546875,66.40625,88.8671875
1510176732471.5999,-46.875,-985.83984375,36.62109375,-103.515625,37.109375
1510176732475.506,-36.62109375,-968.26171875,60.05859375,29.296875,27.83203125
1510176732479.4124,-1.953125,-940.91796875,94.23828125,231.4453125,-23.4375
1510176732483.3186,19.53125,-941.89453125,82.03125,127.9296875,-32.2265625
1510176732487.2249,2.9296875,-970.21484375,50.78125,-58.59375,5.859375
1510176732491.131,-19.04296875,-984.86328125,48.828125,-9.765625,8.7890625
1510176732495.0374,-4.8828125,-887.6953125,84.47265625,177.734375,36.1328125
1510176732498.9436,32.2265625,-881.34765625,80.56640625,180.17578125,3.90625
1510176732502.8499,9.27734375,-976.07421875,46.38671875,-2.44140625,-38.57421875
1510176732506.756,-17.08984375,-982.91015625,42.96875,-56.15234375,-21.484375
1510176732510.6624,8.7890625,-922.36328125,70.80078125,132.32421875,-8.30078125
1510176732527.7603,30.76171875,-812.98828125,74.70703125,215.33203125,47.8515625
1510176732531.6665,12.6953125,-916.50390625,46.875,37.59765625,5.859375
1510176732535.5728,-2.44140625,-993.1640625,31.73828125,-81.54296875,-9.27734375
1510176732539.479,4.8828125,-943.84765625,50.29296875,70.3125,60.05859375
1510176732543.3853,28.3203125,-819.3359375,70.3125,231.4453125,57.6171875
1510176732547.2915,27.34375,-895.99609375,41.9921875,84.47265625,19.04296875
1510176732551.1978,1.953125,-985.3515625,15.625,-92.7734375,-54.19921875
1510176732555.104,3.41796875,-980.95703125,32.2265625,17.578125,-57.6171875
1510176732559.0103,32.2265625,-847.16796875,62.01171875,213.37890625,47.36328125
1510176732562.9165,32.71484375,-851.07421875,38.57421875,120.1171875,61.5234375
1510176732566.8228,-6.8359375,-988.28125,6.34765625,-68.359375,-42.48046875
1510176732570.729,-5.859375,-972.16796875,17.08984375,-23.4375,-58.10546875
1510176732572.289,20.5078125,-930.6640625,48.828125,190.4296875,-27.83203125
1510176732576.1953,23.4375,-934.08203125,56.640625,204.1015625,8.30078125
1510176732580.1016,0.0,-976.07421875,27.83203125,3.41796875,5.37109375
1510176732584.0078,-20.99609375,-968.75,14.16015625,-65.4296875,-2.44140625
1510176732587.914,2.44140625,-970.21484375,38.57421875,127.9296875,12.6953125
1510176732591.8203,38.57421875,-970.21484375,50.78125,219.7265625,39.0625
1510176732595.7266,34.1796875,-970.21484375,29.296875,21.484375,-11.71875
1510176732599.6328,7.8125,-970.21484375,13.671875,-85.44921875,-39.0625
1510176732603.539,11.71875,-970.21484375,29.296875,76.171875,65.4296875
1510176732607.4453,33.203125,-970.21484375,47.8515625,230.46875,70.80078125
1510176732611.3516,13.671875,-970.21484375,37.109375,103.02734375,-23.92578125
1510176732615.2578,-15.13671875,-965.33203125,16.6015625,-63.96484375,-9.27734375
1510176732617.8218,2.9296875,-985.83984375,22.4609375,29.296875,1.953125
1510176732621.728,28.80859375,-899.90234375,49.31640625,231.93359375,-17.08984375
1510176732625.6343,13.671875,-881.8359375,46.38671875,182.12890625,8.7890625
1510176732629.5405,6.34765625,-979.4921875,22.4609375,-25.390625,36.62109375
1510176732633.4468,14.6484375,-971.6796875,17.578125,-49.31640625,41.50390625
1510176732637.353,42.48046875,-959.9609375,41.9921875,151.85546875,67.3828125
1510176732641.2593,39.0625,-958.984375,50.78125,194.3359375,73.73046875
1510176732645.1655,-9.765625,-966.796875,28.3203125,5.859375,61.5234375
1510176732649.0718,-6.34765625,-977.05078125,8.30078125,-91.796875,80.078125
1510176732652.978,17.578125,-953.125,32.2265625,76.66015625,55.17578125
1510176732656.8843,35.15625,-867.1875,60.546875,237.3046875,28.80859375
1510176732660.7905,13.671875,-929.6875,37.109375,74.70703125,49.31640625
1510176732662.3555,-10.25390625,-981.93359375,14.16015625,-83.984375,14.6484375
1510176732666.2617,1.953125,-970.21484375,36.1328125,48.828125,-4.39453125
1510176732670.168,16.11328125,-927.24609375,62.5,227.5390625,-8.7890625
1510176732674.0742,15.13671875,-929.6875,42.96875,104.00390625,0.9765625
1510176732677.9805,-21.484375,-976.5625,12.6953125,-78.61328125,3.90625
1510176732681.8867,-16.6015625,-968.75,22.4609375,-20.01953125,23.4375
1510176732685.793,21.97265625,-969.7265625,52.734375,170.8984375,46.875
1510176732689.6992,41.9921875,-970.703125,42.48046875,172.8515625,-13.671875
1510176732693.6055,33.203125,-968.75,11.71875,-14.16015625,-23.92578125
1510176732697.5117,4.39453125,-973.14453125,19.04296875,-61.03515625,-34.66796875
1510176732701.418,15.625,-960.9375,50.29296875,130.37109375,-49.8046875
1510176732705.3242,18.06640625,-950.68359375,52.24609375,204.1015625,-22.94921875
1510176732707.3904,-15.625,-970.21484375,18.5546875,16.11328125,-43.9453125
1510176732711.2966,-13.671875,-971.19140625,5.859375,-93.75,-63.4765625
1510176732715.203,22.4609375,-968.75,35.64453125,85.44921875,-27.34375
1510176732719.1091,46.38671875,-968.26171875,47.36328125,232.91015625,26.85546875
1510176732723.0154,26.3671875,-969.7265625,19.53125,58.59375,-8.30078125
1510176732726.9216,-13.18359375,-970.21484375,0.48828125,-104.00390625,-61.03515625
1510176732730.828,-6.8359375,-970.21484375,20.01953125,5.37109375,-42.96875
1510176732734.7341,27.34375,-970.21484375,46.38671875,204.1015625,-28.80859375
1510176732738.6404,17.578125,-970.21484375,34.1796875,141.11328125,19.04296875
1510176732742.5466,-2.9296875,-970.21484375,14.16015625,-53.22265625,18.5546875
1510176732746.453,1.953125,-970.21484375,21.484375,-19.53125,18.06640625
1510176732750.3591,17.08984375,-970.21484375,48.828125,166.015625,4.39453125
1510176732752.4187,34.1796875,-970.21484375,52.24609375,157.71484375,10.7421875
1510176732756.325,19.04296875,-969.7265625,29.78515625,-34.66796875,17.578125
1510176732760.2312,0.48828125,-970.703125,18.5546875,-82.03125,10.7421875
1510176732764.1375,9.765625,-969.7265625,44.43359375,114.74609375,-12.20703125
1510176732768.0437,20.99609375,-964.35546875,59.5703125,185.546875,14.6484375
1510176732771.95,8.7890625,-968.26171875,32.71484375,13.18359375,11.23046875
1510176732775.8562,-13.671875,-970.703125,14.6484375,-75.68359375,-31.73828125
1510176732779.7625,3.41796875,-969.7265625,33.69140625,78.125,13.671875
1510176732783.6687,6.8359375,-970.21484375,62.98828125,219.23828125,-34.66796875
1510176732787.575,-0.48828125,-970.21484375,41.50390625,72.75390625,-54.6875
1510176732791.4812,11.71875,-968.75,13.18359375,-87.40234375,13.18359375
1510176732795.3875,25.87890625,-973.6328125,26.3671875,7.32421875,22.94921875
1510176732797.4697,49.31640625,-956.0546875,61.5234375,204.58984375,24.90234375
1510176732801.376,32.2265625,-950.68359375,54.6875,133.30078125,19.04296875
1510176732805.2822,-5.37109375,-972.16796875,20.99609375,-56.640625,15.625
1510176732809.1885,-1.46484375,-970.703125,26.85546875,-29.78515625,12.6953125
1510176732813.0947,37.59765625,-961.9140625,58.10546875,170.8984375,-7.32421875
1510176732817.001,43.9453125,-965.8203125,53.22265625,190.4296875,-44.921875
1510176732820.9072,12.20703125,-967.28515625,16.11328125,-11.71875,-46.875
1510176732824.8135,2.9296875,-976.07421875,12.20703125,-75.68359375,7.8125
1510176732828.7197,23.4375,-959.9609375,57.6171875,116.2109375,51.26953125
1510176732832.626,41.015625,-879.39453125,65.91796875,216.796875,88.37890625
1510176732836.5322,19.53125,-932.6171875,37.109375,32.71484375,75.1953125
1510176732840.4385,-1.953125,-983.3984375,23.4375,-96.6796875,22.94921875
1510176732842.481,13.671875,-964.35546875,37.59765625,68.84765625,-2.44140625
1510176732846.3872,44.43359375,-945.3125,59.5703125,244.62890625,12.20703125
1510176732850.2935,36.1328125,-959.47265625,31.73828125,89.84375,6.34765625
1510176732854.1997,13.18359375,-974.12109375,0.9765625,-104.4921875,-7.32421875
1510176732858.106,8.7890625,-968.26171875,16.6015625,-5.37109375,-24.90234375
1510176732862.0122,6.8359375,-970.703125,45.41015625,196.77734375,-41.015625
1510176732865.9185,9.765625,-970.21484375,41.015625,144.04296875,28.80859375
1510176732869.8247,2.44140625,-970.21484375,26.3671875,-50.29296875,89.35546875
1510176732873.731,3.90625,-970.21484375,26.85546875,-56.640625,47.36328125
1510176732877.6372,33.203125,-970.21484375,49.31640625,153.3203125,16.6015625
1510176732881.5435,34.1796875,-970.21484375,58.10546875,195.3125,65.91796875
1510176732885.4497,24.4140625,-970.21484375,33.69140625,0.48828125,46.875
1510176732902.5264,7.8125,-970.21484375,18.5546875,-82.03125,-5.859375
1510176732906.4326,2.9296875,-970.21484375,40.0390625,100.09765625,-11.71875
1510176732910.3389,26.3671875,-970.21484375,62.01171875,220.703125,11.71875
1510176732914.245,12.6953125,-970.21484375,41.9921875,25.87890625,16.6015625
1510176732918.1514,-9.27734375,-970.21484375,14.16015625,-117.1875,-11.23046875
1510176732922.0576,2.9296875,-969.7265625,29.78515625,32.71484375,46.38671875
1510176732925.9639,32.2265625,-970.21484375,58.59375,220.703125,36.1328125
1510176732929.87,22.4609375,-970.21484375,50.78125,104.4921875,-29.78515625
1510176732933.7764,5.859375,-969.23828125,34.66796875,-75.1953125,-58.10546875
1510176732937.6826,7.32421875,-973.6328125,39.55078125,-12.20703125,-37.59765625
1510176732941.5889,13.18359375,-955.078125,69.82421875,186.5234375,6.34765625
1510176732945.495,24.4140625,-951.171875,73.73046875,167.96875,16.6015625
1510176732947.5552,7.8125,-971.6796875,41.50390625,-17.08984375,-2.44140625
1510176732951.4614,5.859375,-971.19140625,32.71484375,-62.5,-0.9765625
1510176732955.3677,26.85546875,-966.30859375,62.5,133.30078125,0.48828125
1510176732959.274,33.69140625,-959.9609375,76.66015625,215.8203125,13.18359375
1510176732963.1802,-0.48828125,-967.7734375,51.7578125,23.92578125,19.53125
1510176732967.0864,-2.9296875,-972.65625,34.1796875,-70.80078125,30.2734375
1510176732970.9927,28.3203125,-969.7265625,61.03515625,92.7734375,0.0
1510176732974.899,38.57421875,-935.05859375,91.796875,230.95703125,8.7890625
1510176732978.8052,28.80859375,-955.078125,64.94140625,68.359375,5.859375
1510176732982.7114,15.625,-973.14453125,42.96875,-93.75,17.08984375
1510176732986.6177,25.390625,-976.5625,73.73046875,47.36328125,4.8828125
1510176732990.524,38.0859375,-929.6875,103.02734375,248.046875,-55.6640625
1510176732992.5874,23.92578125,-916.015625,93.26171875,156.25,48.33984375
1510176732996.4937,5.859375,-971.19140625,70.80078125,-31.25,77.63671875
1510176733000.4,17.578125,-982.421875,80.56640625,5.859375,-3.41796875
1510176733004.3062,19.04296875,-910.15625,104.98046875,216.796875,10.25390625
1510176733008.2124,-20.5078125,-897.4609375,98.6328125,202.1484375,-20.01953125
1510176733012.1187,-20.5078125,-975.09765625,79.58984375,-17.578125,7.8125
1510176733016.025,-9.27734375,-977.05078125,80.078125,-66.40625,42.48046875
1510176733019.9312,-0.9765625,-940.91796875,115.72265625,144.04296875,12.6953125
1510176733023.8374,25.87890625,-931.15234375,120.1171875,237.3046875,16.11328125
1510176733027.7437,-2.44140625,-974.12109375,95.703125,43.45703125,-20.99609375
1510176733031.65,-44.43359375,-970.21484375,100.09765625,-102.05078125,-35.15625
1510176733035.5562,-23.4375,-969.7265625,124.0234375,29.296875,68.84765625
1510176733037.6284,1.46484375,-965.8203125,148.4375,198.2421875,107.421875
1510176733041.5347,-29.78515625,-966.796875,138.18359375,42.48046875,38.0859375
1510176733045.441,-86.9140625,-970.21484375,122.55859375,-144.04296875,8.30078125
1510176733049.3472,-93.26171875,-974.12109375,133.30078125,-60.05859375,-6.34765625
1510176733053.2534,-49.31640625,-938.4765625,161.62109375,126.46484375,8.30078125
1510176733057.1597,-58.10546875,-944.82421875,156.73828125,37.59765625,33.69140625
1510176733061.066,-114.2578125,-976.07421875,130.859375,-172.36328125,26.3671875
1510176733064.9722,-99.12109375,-968.26171875,127.44140625,-153.3203125,45.8984375
1510176733068.8784,-70.80078125,-970.21484375,144.53125,32.71484375,30.2734375
1510176733072.7847,-81.54296875,-971.19140625,155.2734375,37.59765625,-20.99609375
1510176733076.691,-95.703125,-964.35546875,128.41796875,-127.9296875,-36.62109375
1510176733080.5972,-110.83984375,-982.421875,111.328125,-192.87109375,-35.15625
1510176733082.651,-93.75,-932.12890625,141.11328125,-7.8125,24.4140625
1510176733086.5571,-37.109375,-861.328125,152.34375,146.484375,54.19921875
1510176733090.4634,-45.8984375,-946.2890625,118.65234375,-13.671875,5.37109375
1510176733094.3696,-63.96484375,-978.515625,97.16796875,-160.15625,-3.90625
1510176733098.276,-20.5078125,-965.33203125,110.3515625,-6.8359375,-27.83203125
1510176733102.1821,20.01953125,-971.19140625,121.58203125,175.29296875,-88.37890625
1510176733106.0884,16.6015625,-967.7734375,102.5390625,58.59375,-16.11328125
1510176733109.9946,-10.25390625,-961.9140625,63.4765625,-105.95703125,58.59375
1510176733113.901,-14.16015625,-997.0703125,67.3828125,-22.94921875,19.04296875
1510176733117.8071,24.4140625,-786.1328125,108.3984375,188.4765625,42.48046875
1510176733121.7134,50.29296875,-685.546875,92.28515625,186.03515625,75.1953125
1510176733125.6196,34.66796875,-931.15234375,52.734375,18.06640625,64.94140625
1510176733127.683,36.1328125,-1000.0,51.26953125,-3.41796875,13.671875
1510176733131.5894,53.22265625,-837.890625,77.1484375,190.4296875,-60.05859375
1510176733135.4956,60.05859375,-675.78125,78.61328125,238.76953125,-28.3203125
1510176733139.4019,58.59375,-895.5078125,50.78125,40.52734375,13.18359375
1510176733143.308,42.48046875,-1000.0,38.57421875,-44.921875,16.11328125
1510176733147.2144,50.78125,-893.5546875,57.6171875,143.5546875,66.89453125
1510176733151.1206,68.359375,-811.03515625,69.3359375,288.57421875,-8.7890625
1510176733155.0269,59.08203125,-937.98828125,44.921875,103.515625,-67.3828125
1510176733158.933,31.73828125,-1000.0,32.71484375,-50.29296875,-62.5
1510176733162.8394,48.828125,-891.11328125,55.6640625,94.23828125,-39.55078125
1510176733166.7456,67.3828125,-556.15234375,78.61328125,281.73828125,40.52734375
1510176733170.6519,39.55078125,-542.96875,64.94140625,187.5,35.15625
1510176733172.715,6.8359375,-866.2109375,46.875,-5.859375,8.7890625
1510176733176.6213,33.69140625,-992.1875,46.875,28.80859375,-30.76171875
1510176733180.5276,61.5234375,-707.51953125,66.89453125,256.34765625,-50.78125
1510176733184.4338,58.59375,-449.21875,69.82421875,236.328125,11.71875
1510176733188.34,49.8046875,-745.1171875,40.0390625,7.8125,16.11328125
1510176733192.2463,24.4140625,-994.140625,28.3203125,-9.27734375,-27.34375
1510176733196.1526,31.73828125,-955.078125,53.7109375,189.453125,-4.39453125
1510176733200.0588,53.22265625,-685.05859375,74.21875,242.1875,37.59765625
1510176733203.965,46.875,-644.04296875,60.546875,58.10546875,25.390625
1510176733207.8713,23.4375,-1000.0,42.96875,-41.015625,41.015625
1510176733211.7776,37.109375,-854.00390625,71.77734375,125.48828125,38.0859375
1510176733215.6838,62.01171875,-359.86328125,96.19140625,261.23046875,17.08984375
1510176733217.7542,38.57421875,-491.2109375,73.73046875,105.95703125,-8.7890625
1510176733221.6604,18.5546875,-965.33203125,47.8515625,-42.96875,-43.9453125
1510176733225.5667,25.87890625,-901.3671875,65.4296875,49.8046875,31.73828125
1510176733229.473,49.31640625,-429.6875,94.23828125,229.4921875,69.82421875
1510176733233.3792,47.36328125,-440.91796875,76.66015625,165.0390625,28.3203125
1510176733237.2854,12.6953125,-883.7890625,39.55078125,-19.53125,-38.57421875
1510176733241.1917,9.27734375,-1000.0,42.96875,-7.8125,-48.828125
1510176733245.098,32.2265625,-692.3828125,86.42578125,182.6171875,16.11328125
1510176733249.0042,46.38671875,-432.6171875,97.16796875,208.0078125,34.66796875
1510176733252.9104,4.8828125,-771.97265625,60.546875,12.20703125,10.7421875
1510176733256.8167,-22.94921875,-1000.0,48.33984375,-62.98828125,21.484375
1510176733260.723,11.23046875,-813.96484375,82.03125,153.3203125,39.0625
1510176733277.3096,40.52734375,-595.703125,92.28515625,252.9296875,-22.94921875
1510176733281.2158,38.0859375,-787.59765625,66.89453125,51.7578125,-1.46484375
1510176733285.122,24.4140625,-1000.0,48.828125,-75.1953125,1.46484375
1510176733289.0283,28.80859375,-893.06640625,76.66015625,69.82421875,9.27734375
1510176733292.9346,31.73828125,-565.91796875,102.05078125,226.07421875,54.6875
1510176733296.8408,18.5546875,-734.375,73.73046875,93.26171875,29.78515625
1510176733300.747,9.27734375,-1000.0,52.734375,-65.91796875,37.109375
1510176733304.6533,15.625,-973.6328125,74.70703125,9.765625,24.4140625
1510176733308.5596,25.390625,-760.25390625,101.07421875,192.87109375,-30.76171875
1510176733312.4658,13.18359375,-781.25,87.890625,150.87890625,30.2734375
1510176733316.372,-16.11328125,-990.72265625,66.40625,-46.38671875,66.89453125
1510176733320.2783,-11.23046875,-984.375,74.21875,-41.015625,11.71875
1510176733322.3237,26.85546875,-853.02734375,96.6796875,162.109375,4.8828125
1510176733326.23,41.50390625,-768.5546875,94.7265625,188.96484375,50.78125
1510176733330.1362,19.53125,-917.48046875,69.82421875,-9.27734375,89.84375
1510176733334.0425,2.44140625,-978.515625,58.10546875,-89.35546875,78.125
1510176733337.9487,22.4609375,-954.1015625,77.1484375,106.93359375,42.96875
1510176733341.855,38.0859375,-939.94140625,86.9140625,235.83984375,71.2890625
1510176733345.7612,13.18359375,-958.49609375,65.4296875,53.7109375,37.59765625
1510176733349.6675,-5.859375,-972.65625,54.6875,-88.8671875,-37.109375
1510176733353.5737,3.90625,-969.7265625,67.3828125,60.05859375,-3.90625
1510176733357.48,19.53125,-968.26171875,84.9609375,219.23828125,34.66796875
1510176733361.3862,10.7421875,-965.33203125,77.1484375,92.7734375,16.6015625
1510176733365.2925,-3.90625,-964.35546875,56.640625,-56.15234375,44.921875
1510176733367.3545,12.6953125,-990.72265625,61.03515625,15.625,22.4609375
1510176733371.2607,30.2734375,-863.76953125,88.37890625,189.94140625,-5.37109375
1510176733375.167,15.13671875,-826.66015625,89.35546875,165.0390625,2.9296875
1510176733379.0732,14.16015625,-972.16796875,63.96484375,-21.97265625,8.30078125
1510176733382.9795,23.92578125,-978.515625,58.59375,-49.8046875,-0.48828125
1510176733386.8857,22.94921875,-947.75390625,89.84375,144.04296875,7.32421875
1510176733390.792,18.5546875,-936.5234375,99.609375,201.66015625,20.99609375
1510176733394.6982,7.8125,-960.9375,72.265625,-1.953125,-11.23046875
1510176733398.6045,5.859375,-985.83984375,54.6875,-94.7265625,-5.859375
1510176733402.5107,7.8125,-921.875,81.54296875,101.5625,8.30078125
1510176733406.417,19.04296875,-669.43359375,113.76953125,223.14453125,38.0859375
1510176733410.3232,32.2265625,-773.4375,85.9375,53.7109375,50.78125
1510176733412.3848,18.5546875,-1000.0,56.640625,-71.2890625,-35.15625
1510176733416.291,27.83203125,-949.21875,77.63671875,43.9453125,-21.484375
1510176733420.1973,41.50390625,-720.703125,100.5859375,202.63671875,11.71875
1510176733424.1035,13.18359375,-774.4140625,82.03125,108.88671875,26.3671875
1510176733428.0098,-18.06640625,-975.09765625,55.17578125,-60.05859375,40.52734375
1510176733431.916,1.953125,-998.046875,63.4765625,-21.97265625,-34.1796875
1510176733435.8223,33.203125,-838.37890625,97.65625,161.1328125,20.5078125
1510176733439.7285,24.4140625,-774.90234375,87.40234375,165.0390625,35.64453125
1510176733443.6348,2.9296875,-967.7734375,55.17578125,-10.7421875,22.94921875
1510176733447.541,-2.44140625,-997.0703125,62.98828125,-55.6640625,44.43359375
1510176733451.4473,30.76171875,-880.859375,87.40234375,139.16015625,1.953125
