timestamp,TP9,AF7,AF8,TP10,Right AUX
1510191287958.1294,0.0,-968.26171875,999.51171875,174.8046875,38.57421875
1510191287962.0356,-4.8828125,964.35546875,999.51171875,50.78125,42.48046875
1510191287965.942,-13.671875,922.36328125,999.51171875,-21.484375,28.80859375
1510191287969.8481,5.37109375,987.3046875,999.51171875,100.5859375,33.69140625
1510191287973.7544,0.0,-986.328125,999.51171875,211.42578125,68.84765625
1510191287977.6606,4.39453125,984.375,999.51171875,85.44921875,57.6171875
1510191287981.567,18.5546875,898.4375,999.51171875,-10.25390625,29.296875
1510191287985.4731,24.4140625,967.28515625,999.51171875,65.91796875,62.5
1510191287989.3794,11.71875,-986.81640625,999.51171875,172.8515625,66.89453125
1510191287993.2856,23.4375,992.67578125,999.51171875,159.66796875,9.765625
1510191287997.192,15.625,-999.0234375,999.51171875,21.97265625,-33.203125
1510191288001.0981,9.27734375,999.51171875,999.51171875,-9.765625,-41.015625
1510191288018.1694,26.3671875,999.51171875,999.51171875,141.11328125,15.13671875
1510191288022.0757,35.64453125,999.51171875,999.51171875,179.19921875,35.15625
1510191288025.982,39.0625,999.51171875,999.51171875,28.80859375,26.85546875
1510191288029.8882,36.1328125,999.51171875,999.51171875,-23.4375,20.5078125
1510191288033.7944,22.4609375,999.51171875,999.51171875,103.02734375,58.10546875
1510191288037.7007,37.109375,999.51171875,999.51171875,193.359375,104.98046875
1510191288041.607,80.078125,999.51171875,999.51171875,81.54296875,63.96484375
1510191288045.5132,59.08203125,999.51171875,999.51171875,-40.0390625,37.109375
1510191288049.4194,36.1328125,999.51171875,999.51171875,37.59765625,42.48046875
1510191288053.3257,67.87109375,999.51171875,999.51171875,171.38671875,60.546875
1510191288057.232,48.33984375,999.51171875,999.51171875,90.8203125,55.17578125
1510191288061.1382,3.41796875,999.51171875,999.51171875,-23.4375,-18.5546875
1510191288062.7026,23.92578125,999.51171875,999.51171875,7.32421875,-18.5546875
1510191288066.609,34.66796875,999.51171875,999.51171875,144.04296875,20.01953125
1510191288070.5151,2.9296875,999.51171875,999.51171875,138.18359375,21.97265625
1510191288074.4214,10.7421875,999.51171875,999.51171875,-18.5546875,58.59375
1510191288078.3276,21.97265625,999.51171875,999.51171875,-64.94140625,34.66796875
1510191288082.234,12.20703125,999.51171875,999.51171875,85.9375,-42.96875
1510191288086.1401,22.94921875,999.51171875,999.51171875,126.46484375,-41.015625
1510191288090.0464,12.6953125,999.51171875,999.51171875,-32.71484375,-28.3203125
1510191288093.9526,-0.48828125,999.51171875,999.51171875,-94.7265625,51.7578125
1510191288097.859,28.80859375,999.51171875,999.51171875,19.53125,65.91796875
1510191288101.7651,69.82421875,999.51171875,999.51171875,128.41796875,-8.30078125
1510191288105.6714,26.3671875,999.51171875,999.51171875,24.90234375,4.8828125
1510191288107.7344,-8.7890625,999.51171875,999.51171875,-83.0078125,13.18359375
1510191288111.6406,1.953125,999.51171875,999.51171875,-8.7890625,0.0
1510191288115.5469,26.3671875,999.51171875,999.51171875,117.67578125,-9.765625
1510191288119.4531,50.29296875,999.51171875,999.51171875,55.17578125,3.41796875
1510191288123.3594,15.13671875,999.51171875,999.51171875,-100.5859375,11.23046875
1510191288127.2656,9.765625,-1000.0,999.51171875,-85.9375,32.71484375
1510191288131.1719,23.92578125,990.72265625,999.51171875,78.61328125,50.78125
1510191288135.0781,-1.953125,-974.12109375,999.51171875,108.88671875,13.671875
1510191288138.9844,-15.625,886.71875,999.51171875,-37.59765625,30.76171875
1510191288142.8906,-27.34375,843.75,999.51171875,-92.28515625,59.5703125
1510191288146.7969,13.671875,-991.69921875,999.51171875,66.40625,15.625
1510191288150.7031,32.71484375,-1000.0,999.51171875,133.30078125,20.5078125
1510191288152.786,-28.80859375,976.5625,999.51171875,-1.953125,52.734375
1510191288156.6921,-50.78125,755.859375,999.51171875,-90.8203125,19.04296875
1510191288160.5984,-10.7421875,708.49609375,999.51171875,-8.7890625,-10.7421875
1510191288164.5046,11.23046875,825.68359375,999.51171875,105.46875,36.1328125
1510191288168.411,16.6015625,613.76953125,999.51171875,22.94921875,46.875
1510191288172.3171,39.0625,156.73828125,999.51171875,-83.984375,21.484375
1510191288176.2234,27.83203125,94.7265625,999.51171875,-27.83203125,21.484375
1510191288180.1296,9.27734375,309.08203125,999.51171875,86.42578125,20.99609375
1510191288184.036,10.7421875,75.68359375,999.51171875,32.71484375,25.390625
1510191288187.9421,11.23046875,-25.390625,999.51171875,-104.98046875,49.8046875
1510191288191.8484,-16.11328125,-166.9921875,999.51171875,-83.49609375,23.4375
1510191288195.7546,-36.62109375,-134.765625,999.51171875,70.80078125,6.8359375
1510191288197.797,-0.48828125,69.3359375,999.51171875,77.1484375,-0.48828125
1510191288201.7034,24.90234375,-133.7890625,999.51171875,-70.80078125,-1.46484375
1510191288205.6096,7.32421875,-468.75,999.51171875,-67.87109375,-7.8125
1510191288209.5159,14.16015625,-414.0625,999.51171875,54.6875,34.66796875
1510191288213.422,-28.80859375,-122.0703125,999.51171875,95.703125,91.796875
1510191288217.3284,-32.2265625,-381.8359375,999.51171875,-10.25390625,65.91796875
1510191288221.2346,-10.25390625,-742.1875,999.51171875,-82.51953125,3.41796875
1510191288225.1409,19.53125,-769.04296875,999.51171875,9.765625,33.69140625
1510191288229.047,5.37109375,-440.4296875,999.51171875,97.65625,58.10546875
1510191288232.9534,-28.3203125,-136.23046875,999.51171875,13.671875,78.125
1510191288236.8596,-1.46484375,-445.3125,999.51171875,-103.515625,84.47265625
1510191288240.7659,2.44140625,-777.83203125,999.51171875,-53.7109375,63.4765625
1510191288242.8306,30.76171875,-422.8515625,999.51171875,72.75390625,54.6875
1510191288246.7368,39.0625,-188.96484375,999.51171875,82.03125,18.06640625
1510191288250.643,0.9765625,-553.7109375,999.51171875,7.8125,63.96484375
1510191288254.5493,-26.3671875,-798.33984375,999.51171875,3.90625,47.8515625
1510191288258.4556,13.671875,-513.671875,999.51171875,104.98046875,48.828125
1510191288262.3618,74.21875,-470.703125,999.51171875,121.09375,71.2890625
1510191288266.268,8.30078125,-860.3515625,999.51171875,-5.859375,-11.23046875
1510191288270.1743,-13.18359375,-995.1171875,999.51171875,-69.3359375,-1.46484375
1510191288274.0806,22.4609375,-913.57421875,999.51171875,40.52734375,3.90625
1510191288277.9868,30.2734375,-733.88671875,999.51171875,128.90625,-14.6484375
1510191288281.893,10.7421875,-840.8203125,999.51171875,22.94921875,21.484375
1510191288285.7993,-3.90625,-986.328125,999.51171875,-62.98828125,-18.5546875
1510191288287.8623,53.7109375,-978.515625,999.51171875,-14.6484375,-20.01953125
1510191288291.7686,91.30859375,-845.21484375,999.51171875,90.33203125,9.27734375
1510191288295.6748,71.77734375,-846.19140625,999.51171875,52.24609375,0.48828125
1510191288299.581,21.97265625,-978.02734375,999.51171875,-62.98828125,23.92578125
1510191288303.4873,12.20703125,-991.2109375,999.51171875,-24.4140625,18.06640625
1510191288307.3936,50.78125,-868.1640625,999.51171875,96.19140625,5.859375
1510191288311.2998,15.625,-826.66015625,999.51171875,85.9375,82.03125
1510191288315.206,-3.41796875,-987.3046875,999.51171875,-45.8984375,61.03515625
1510191288319.1123,32.71484375,-889.6484375,999.51171875,-41.9921875,41.50390625
1510191288323.0186,36.62109375,-603.515625,999.51171875,88.37890625,31.73828125
1510191288326.9248,43.9453125,-438.4765625,999.51171875,110.83984375,-40.0390625
1510191288330.831,33.69140625,-507.8125,999.51171875,16.11328125,-25.390625
1510191288333.3933,27.34375,-671.875,999.51171875,-36.62109375,-27.34375
1510191288337.2996,17.08984375,-596.6796875,999.51171875,30.76171875,-20.01953125
1510191288341.2058,-22.94921875,-305.17578125,999.51171875,109.86328125,27.34375
1510191288345.112,20.01953125,-261.23046875,999.51171875,33.69140625,32.2265625
1510191288349.0183,56.640625,-473.6328125,999.51171875,-40.52734375,46.875
1510191288352.9246,25.390625,-672.8515625,999.51171875,32.2265625,58.59375
1510191288356.8308,34.1796875,-655.76171875,999.51171875,127.44140625,36.1328125
1510191288360.737,36.1328125,-442.3828125,999.51171875,97.65625,43.45703125
1510191288364.6433,23.92578125,-530.2734375,999.51171875,0.0,46.38671875
1510191288368.5496,19.53125,-704.1015625,999.51171875,-8.30078125,27.83203125
1510191288372.4558,41.50390625,-471.19140625,999.51171875,125.9765625,10.25390625
1510191288376.362,17.08984375,-205.078125,999.51171875,143.5546875,6.8359375
1510191288393.9363,-0.9765625,-410.64453125,999.51171875,4.8828125,50.29296875
1510191288397.8425,-11.23046875,-759.765625,999.51171875,-43.45703125,43.45703125
1510191288401.7488,-5.37109375,-666.50390625,999.51171875,69.3359375,-12.6953125
1510191288405.655,49.8046875,-330.078125,999.51171875,183.10546875,-10.25390625
1510191288409.5613,43.9453125,-469.7265625,999.51171875,75.1953125,47.8515625
1510191288413.4675,9.27734375,-883.30078125,999.51171875,-26.85546875,36.1328125
1510191288417.3738,13.671875,-949.21875,999.51171875,85.44921875,-0.9765625
1510191288421.28,8.7890625,-561.03515625,999.51171875,171.875,40.0390625
1510191288425.1863,3.41796875,-532.71484375,999.51171875,59.08203125,71.2890625
1510191288429.0925,-5.859375,-887.20703125,999.51171875,-13.671875,79.1015625
1510191288432.9988,-23.4375,-1000.0,999.51171875,51.26953125,43.45703125
1510191288436.905,-23.4375,-748.046875,999.51171875,160.64453125,38.0859375
1510191288438.4695,-24.90234375,-677.734375,999.51171875,109.375,15.13671875
1510191288442.3757,-11.23046875,-944.82421875,999.51171875,-15.13671875,-26.3671875
1510191288446.282,-13.18359375,-1000.0,999.51171875,12.6953125,-9.27734375
1510191288450.1882,3.41796875,-835.44921875,999.51171875,154.296875,20.5078125
1510191288454.0945,7.8125,-778.3203125,999.51171875,186.03515625,18.06640625
1510191288458.0007,-39.55078125,-962.890625,999.51171875,34.66796875,7.8125
1510191288461.907,-26.3671875,-994.62890625,999.51171875,-55.17578125,-34.66796875
1510191288465.8132,8.30078125,-901.85546875,999.51171875,79.58984375,5.859375
1510191288469.7195,-0.9765625,-853.515625,999.51171875,166.50390625,44.921875
1510191288473.6257,-48.33984375,-966.796875,999.51171875,33.203125,-13.18359375
1510191288477.532,-31.73828125,-982.91015625,999.51171875,-21.97265625,30.76171875
1510191288481.4382,35.64453125,-938.4765625,999.51171875,72.75390625,69.82421875
1510191288482.9995,4.8828125,-922.8515625,999.51171875,178.22265625,1.953125
1510191288486.9058,-4.39453125,-971.19140625,999.51171875,107.91015625,16.6015625
1510191288490.812,-9.765625,-971.6796875,999.51171875,-16.6015625,62.5
1510191288494.7183,-22.94921875,-968.26171875,999.51171875,24.90234375,35.15625
1510191288498.6245,-13.18359375,-970.21484375,998.53515625,155.2734375,23.4375
1510191288502.5308,7.8125,-970.21484375,-997.55859375,140.13671875,39.55078125
1510191288506.437,32.2265625,-970.21484375,986.328125,11.71875,17.08984375
1510191288510.3433,25.390625,-970.21484375,983.3984375,-0.9765625,-16.6015625
1510191288514.2495,2.9296875,-970.21484375,-997.0703125,139.16015625,41.015625
1510191288518.1558,-1.953125,-970.21484375,992.67578125,136.23046875,24.4140625
1510191288522.062,-13.18359375,-970.21484375,-987.79296875,7.32421875,-3.41796875
1510191288525.9683,-27.34375,-970.21484375,963.37890625,-1.46484375,27.83203125
1510191288543.044,8.7890625,-970.21484375,902.83203125,123.53515625,-4.8828125
1510191288546.9502,34.1796875,-970.21484375,993.1640625,218.26171875,-5.859375
1510191288550.8564,24.4140625,-970.21484375,-995.60546875,103.515625,27.83203125
1510191288554.7627,11.71875,-970.21484375,711.9140625,-20.5078125,11.23046875
1510191288558.669,-0.9765625,-970.21484375,533.203125,46.875,17.08984375
1510191288562.5752,-23.92578125,-970.21484375,723.14453125,166.9921875,2.44140625
1510191288566.4814,0.0,-970.21484375,735.3515625,115.72265625,8.7890625
1510191288570.3877,30.76171875,-970.21484375,341.30859375,21.484375,-0.9765625
1510191288574.294,47.8515625,-970.21484375,-5.37109375,50.78125,-9.765625
1510191288578.2002,53.22265625,-970.21484375,391.11328125,171.38671875,5.37109375
1510191288582.1064,25.390625,-970.21484375,664.55078125,171.875,-16.11328125
1510191288586.0127,-3.90625,-970.21484375,271.484375,30.2734375,5.859375
1510191288618.596,-0.48828125,-970.21484375,-27.34375,-20.01953125,13.671875
1510191288622.5022,-24.90234375,-970.21484375,219.7265625,90.33203125,38.57421875
1510191288626.4084,-20.5078125,-970.21484375,483.3984375,158.69140625,88.37890625
1510191288630.3147,28.80859375,-970.21484375,155.2734375,80.56640625,28.3203125
1510191288634.221,36.62109375,-970.21484375,-216.796875,3.90625,-6.8359375
1510191288638.1272,-20.5078125,-970.21484375,-173.33984375,76.66015625,30.2734375
1510191288642.0334,-28.3203125,-970.21484375,-7.32421875,195.80078125,18.5546875
1510191288645.9397,34.66796875,-970.21484375,-212.40234375,64.94140625,-12.6953125
1510191288649.846,34.1796875,-970.21484375,-518.5546875,-53.22265625,-29.78515625
1510191288653.7522,2.9296875,-970.21484375,-365.234375,65.4296875,-6.34765625
1510191288657.6584,7.32421875,-970.21484375,-42.96875,200.1953125,10.25390625
1510191288661.5647,50.29296875,-970.21484375,-116.69921875,149.4140625,41.9921875
1510191288622.0994,41.50390625,-970.21484375,-395.99609375,3.90625,52.24609375
1510191288626.0056,21.97265625,-970.21484375,-477.5390625,5.859375,-13.671875
1510191288629.9119,4.8828125,-970.21484375,-321.2890625,125.9765625,-22.4609375
1510191288633.818,-42.48046875,-970.21484375,-193.359375,131.8359375,53.22265625
1510191288637.7244,-28.80859375,-970.21484375,-330.078125,21.484375,72.265625
1510191288641.6306,16.11328125,-970.21484375,-623.046875,-3.90625,55.17578125
1510191288645.5369,36.1328125,-970.21484375,-616.2109375,105.46875,57.12890625
1510191288649.443,59.5703125,-970.21484375,-364.74609375,197.75390625,40.0390625
1510191288653.3494,64.453125,-970.21484375,-351.07421875,96.6796875,19.04296875
1510191288657.2556,34.1796875,-970.21484375,-505.37109375,2.9296875,59.5703125
1510191288661.1619,7.32421875,-970.21484375,-591.796875,102.05078125,92.28515625
1510191288665.068,5.37109375,-970.21484375,-551.26953125,191.40625,76.66015625
1510191288678.1387,-0.48828125,-970.21484375,-441.89453125,66.89453125,80.078125
1510191288682.045,28.3203125,-970.21484375,-626.953125,-26.85546875,20.5078125
1510191288685.9512,55.6640625,-970.21484375,-784.66796875,52.734375,10.25390625
1510191288689.8574,48.33984375,-969.23828125,-519.53125,176.26953125,18.06640625
1510191288693.7637,13.18359375,-969.23828125,-337.40234375,119.140625,-11.23046875
1510191288697.67,-2.44140625,-970.21484375,-627.44140625,-14.16015625,35.15625
1510191288701.5762,15.625,-967.7734375,-902.34375,29.296875,51.7578125
1510191288705.4824,-11.71875,-978.02734375,-933.59375,149.4140625,41.50390625
1510191288709.3887,8.7890625,-935.05859375,-564.94140625,160.15625,78.125
1510191288713.295,60.05859375,-920.41015625,-481.93359375,20.5078125,20.99609375
1510191288717.2012,38.0859375,-989.74609375,-862.3046875,-42.48046875,-36.1328125
1510191288721.1074,36.1328125,-912.59765625,-663.57421875,103.515625,2.9296875
1510191288723.1724,19.04296875,-717.7734375,-247.0703125,204.1015625,32.2265625
1510191288727.0786,2.44140625,-796.38671875,-401.3671875,67.3828125,68.359375
1510191288730.9849,35.15625,-982.421875,-857.91015625,-25.87890625,15.625
1510191288734.891,39.0625,-964.35546875,-823.73046875,65.91796875,-69.82421875
1510191288738.7974,44.43359375,-782.71484375,-373.046875,170.41015625,-7.32421875
1510191288742.7036,-32.71484375,-826.66015625,-475.5859375,111.328125,51.7578125
1510191288746.6099,-60.546875,-990.234375,-843.75,-16.11328125,43.9453125
1510191288750.516,46.38671875,-963.37890625,-757.32421875,35.64453125,44.921875
1510191288754.4224,43.45703125,-721.6796875,-381.8359375,164.0625,52.24609375
1510191288758.3286,32.2265625,-716.30859375,-402.83203125,131.8359375,25.390625
1510191288762.2349,27.34375,-981.4453125,-907.2265625,5.859375,-44.43359375
1510191288766.141,7.32421875,-970.21484375,-884.27734375,-17.08984375,3.41796875
1510191288783.74,11.23046875,-730.46875,-474.609375,153.80859375,39.0625
1510191288787.6462,23.4375,-629.8828125,-310.546875,212.40234375,7.32421875
1510191288791.5525,19.04296875,-709.47265625,-435.546875,44.43359375,62.01171875
1510191288795.4587,1.46484375,-740.234375,-567.87109375,-35.64453125,101.07421875
1510191288799.365,-22.4609375,-639.6484375,-446.77734375,81.54296875,61.5234375
1510191288803.2712,-20.99609375,-537.59765625,-247.55859375,170.41015625,55.17578125
1510191288807.1775,-11.71875,-709.47265625,-427.24609375,57.6171875,51.26953125
1510191288811.0837,-46.875,-811.5234375,-639.16015625,-37.59765625,52.24609375
1510191288814.99,-24.90234375,-593.75,-452.1484375,72.265625,116.2109375
1510191288818.8962,32.2265625,-625.48828125,-352.05078125,165.52734375,106.4453125
1510191288822.8025,39.0625,-677.24609375,-388.671875,88.8671875,53.22265625
1510191288826.7087,15.625,-638.18359375,-464.84375,-12.20703125,21.97265625
1510191288813.762,13.671875,-758.30078125,-598.6328125,14.16015625,33.203125
1510191288817.6682,-4.39453125,-670.41015625,-429.19921875,137.6953125,65.4296875
1510191288821.5745,-15.13671875,-561.03515625,-308.10546875,133.30078125,-3.41796875
1510191288825.4807,26.85546875,-710.9375,-531.25,17.578125,-41.015625
1510191288829.387,40.0390625,-903.3203125,-814.453125,-32.71484375,3.90625
1510191288833.2932,13.671875,-928.22265625,-817.3828125,79.58984375,34.66796875
1510191288837.1995,-6.34765625,-687.5,-479.98046875,158.69140625,32.71484375
1510191288841.1057,8.7890625,-707.03125,-527.34375,30.76171875,8.7890625
1510191288845.012,-4.8828125,-962.40234375,-906.25,-66.89453125,24.4140625
1510191288848.9182,4.8828125,-940.4296875,-888.671875,37.109375,-24.90234375
1510191288852.8245,35.64453125,-692.3828125,-490.72265625,144.53125,-43.45703125
1510191288856.7307,51.26953125,-618.1640625,-392.578125,49.31640625,62.98828125
1510191288857.7898,30.2734375,-871.09375,-781.73828125,-68.359375,94.23828125
1510191288861.696,-15.625,-980.46875,-964.84375,7.8125,94.7265625
1510191288865.6023,-21.484375,-727.05078125,-563.4765625,159.1796875,70.3125
1510191288869.5085,13.671875,-664.0625,-426.26953125,103.02734375,29.78515625
1510191288873.4148,45.8984375,-902.34375,-800.78125,-41.9921875,-46.875
1510191288877.321,47.36328125,-991.2109375,-1000.0,-27.34375,-58.59375
1510191288881.2273,53.7109375,-938.4765625,-799.31640625,117.67578125,-8.30078125
1510191288885.1335,43.9453125,-767.578125,-513.671875,112.3046875,52.734375
1510191288889.0398,-16.11328125,-848.6328125,-729.00390625,-34.1796875,80.078125
1510191288892.946,-36.62109375,-1000.0,-1000.0,-78.125,23.4375
1510191288896.8523,22.4609375,-900.390625,-812.98828125,66.40625,8.7890625
1510191288900.7585,25.87890625,-891.6015625,-666.9921875,136.71875,-16.11328125
1510191288902.822,0.9765625,-976.07421875,-877.9296875,-11.23046875,-20.5078125
1510191288906.7283,30.2734375,-972.65625,-990.72265625,-101.5625,34.66796875
1510191288910.6345,30.76171875,-964.35546875,-907.2265625,23.4375,6.34765625
1510191288914.5408,28.80859375,-928.7109375,-702.63671875,139.6484375,-21.484375
1510191288918.447,6.8359375,-950.68359375,-730.46875,28.80859375,40.52734375
1510191288922.3533,-2.9296875,-974.12109375,-943.84765625,-74.70703125,25.87890625
1510191288926.2595,2.44140625,-967.7734375,-941.89453125,0.48828125,-14.16015625
1510191288930.1658,-15.625,-960.44921875,-713.37890625,120.60546875,4.39453125
1510191288934.072,1.953125,-967.28515625,-801.7578125,55.6640625,1.46484375
1510191288937.9783,31.25,-971.19140625,-937.5,-71.77734375,-28.80859375
1510191288941.8845,29.296875,-968.75,-884.765625,-50.78125,-16.6015625
1510191288945.7908,31.25,-973.14453125,-687.01171875,75.1953125,25.390625
1510191288947.856,11.23046875,-950.1953125,-459.47265625,107.421875,61.03515625
1510191288951.7622,0.0,-953.61328125,-547.8515625,-36.1328125,94.7265625
1510191288955.6685,11.71875,-974.12109375,-866.69921875,-108.88671875,62.01171875
1510191288959.5747,-0.9765625,-968.75,-796.875,28.80859375,41.50390625
1510191288963.481,4.8828125,-969.7265625,-425.29296875,123.046875,41.015625
1510191288967.3872,23.4375,-969.7265625,-598.14453125,8.30078125,-7.32421875
1510191288971.2935,12.20703125,-970.21484375,-906.25,-90.8203125,-3.90625
1510191288975.1997,2.9296875,-970.21484375,-1000.0,-33.203125,-45.41015625
1510191288979.106,14.6484375,-970.21484375,-747.55859375,90.8203125,-48.828125
1510191288983.0122,17.08984375,-970.21484375,-403.80859375,47.8515625,9.27734375
1510191288986.9185,-4.39453125,-970.21484375,-632.32421875,-93.26171875,11.23046875
1510191288990.8247,20.5078125,-970.21484375,-731.93359375,-44.43359375,66.40625
1510191288993.3875,65.91796875,-970.21484375,-427.734375,104.4921875,27.83203125
1510191288997.2937,38.0859375,-970.21484375,-272.94921875,65.91796875,-22.94921875
1510191289001.2,-3.41796875,-970.21484375,-561.03515625,-53.7109375,6.34765625
1510191289005.1062,-9.765625,-970.21484375,-822.75390625,-58.10546875,-17.08984375
1510191289009.0125,6.8359375,-970.21484375,-472.65625,64.453125,51.26953125
1510191289012.9187,-14.6484375,-970.21484375,-260.25390625,109.375,86.42578125
1510191289016.825,0.9765625,-970.21484375,-613.76953125,-12.6953125,27.34375
1510191289020.7312,44.43359375,-970.21484375,-982.421875,-105.95703125,6.34765625
1510191289024.6375,25.87890625,-970.21484375,-680.17578125,-2.44140625,19.53125
1510191289028.5437,38.57421875,-970.21484375,-153.80859375,119.62890625,61.5234375
1510191289032.45,53.22265625,-970.21484375,-316.89453125,39.0625,58.59375
1510191289036.3562,30.2734375,-970.21484375,-647.94921875,-85.44921875,36.62109375
1510191289037.9192,25.87890625,-970.21484375,-605.46875,-29.78515625,-13.671875
1510191289041.8254,-16.11328125,-970.21484375,-294.921875,98.6328125,2.44140625
1510191289045.7317,-44.921875,-970.21484375,-306.15234375,29.296875,54.6875
1510191289049.638,22.4609375,-970.21484375,-630.37109375,-87.40234375,42.96875
1510191289053.5442,26.85546875,-970.21484375,-703.125,-49.31640625,23.4375
1510191289057.4504,5.37109375,-970.21484375,-524.4140625,91.30859375,8.30078125
1510191289061.3567,34.1796875,-970.21484375,-604.4921875,70.80078125,10.7421875
1510191289065.263,37.59765625,-970.21484375,-848.14453125,-82.51953125,45.41015625
1510191289069.1692,43.45703125,-970.21484375,-833.49609375,-113.76953125,41.50390625
1510191289073.0754,18.5546875,-970.21484375,-568.84765625,20.99609375,46.38671875
1510191289076.9817,-5.859375,-970.21484375,-295.8984375,110.3515625,83.984375
1510191289080.888,19.53125,-970.21484375,-459.9609375,-9.27734375,60.05859375
1510191289083.45,15.13671875,-970.21484375,-625.48828125,-86.42578125,50.78125
1510191289087.3562,35.15625,-970.21484375,-551.7578125,44.921875,-1.953125
1510191289091.2625,35.15625,-970.21484375,-261.23046875,151.3671875,2.44140625
1510191289095.1687,22.4609375,-970.21484375,-200.68359375,50.78125,3.41796875
1510191289099.075,35.15625,-970.21484375,-385.25390625,-60.546875,13.18359375
1510191289102.9812,25.87890625,-970.21484375,-498.046875,-14.6484375,44.921875
1510191289106.8875,-8.7890625,-970.21484375,-282.2265625,112.3046875,31.73828125
1510191289110.7937,-10.25390625,-970.21484375,49.31640625,98.14453125,70.3125
1510191289114.7,24.4140625,-970.21484375,-85.44921875,-16.6015625,46.875
1510191289118.6062,56.640625,-970.21484375,-349.12109375,-12.6953125,33.69140625
1510191289122.5125,31.73828125,-970.21484375,-157.2265625,120.1171875,62.5
1510191289126.4187,14.16015625,-970.703125,112.79296875,126.46484375,-6.8359375
1510191289142.9934,32.2265625,-968.26171875,-82.03125,-18.06640625,-0.48828125
1510191289146.8997,6.34765625,-973.14453125,-258.30078125,-33.69140625,39.55078125
1510191289150.806,13.18359375,-962.40234375,-54.6875,93.26171875,30.2734375
1510191289154.7122,40.52734375,-915.0390625,291.015625,147.4609375,42.96875
1510191289158.6184,32.2265625,-937.01171875,156.25,32.2265625,50.78125
1510191289162.5247,31.25,-971.19140625,-275.87890625,-62.01171875,24.4140625
1510191289166.431,20.01953125,-979.98046875,-252.9296875,27.83203125,22.4609375
1510191289170.3372,13.671875,-916.015625,197.265625,145.01953125,41.9921875
1510191289174.2434,-12.6953125,-905.2734375,258.7890625,57.6171875,83.0078125
1510191289178.1497,-12.20703125,-977.5390625,-312.01171875,-68.359375,68.359375
1510191289182.056,55.6640625,-969.23828125,-465.33203125,-14.6484375,20.01953125
1510191289185.9622,66.89453125,-968.75,60.05859375,110.83984375,13.671875
1510191289188.0254,42.96875,-970.21484375,101.07421875,70.3125,3.90625
1510191289191.9316,42.96875,-970.21484375,-222.65625,-50.78125,42.48046875
1510191289195.838,-0.48828125,-970.21484375,-409.66796875,-62.01171875,69.82421875
1510191289199.7441,-48.828125,-970.21484375,-290.52734375,59.5703125,-29.296875
1510191289203.6504,4.8828125,-970.21484375,-86.42578125,95.703125,-25.87890625
1510191289207.5566,52.734375,-970.21484375,-394.53125,-9.27734375,18.5546875
1510191289211.463,36.1328125,-970.21484375,-643.5546875,-59.5703125,15.625
1510191289215.3691,45.41015625,-970.21484375,-316.89453125,54.6875,52.24609375
1510191289219.2754,6.34765625,-970.21484375,-149.4140625,136.23046875,22.4609375
1510191289223.1816,7.32421875,-969.7265625,-495.60546875,9.765625,41.015625
1510191289227.088,55.17578125,-970.703125,-590.33203125,-76.171875,48.33984375
1510191289230.9941,13.671875,-969.7265625,-323.2421875,52.24609375,38.0859375
1510191289233.0562,-0.9765625,-966.796875,-29.296875,175.78125,50.78125
1510191289236.9624,31.73828125,-964.84375,-15.625,112.3046875,-9.765625
1510191289240.8687,54.6875,-971.6796875,-149.90234375,4.39453125,-3.90625
1510191289244.775,65.4296875,-954.58984375,-118.65234375,36.1328125,10.7421875
1510191289248.6812,22.94921875,-785.64453125,153.3203125,191.40625,-32.71484375
1510191289252.5874,26.85546875,-618.65234375,321.77734375,196.2890625,10.25390625
1510191289256.4937,69.82421875,-689.94140625,157.71484375,76.171875,26.3671875
1510191289260.4,48.828125,-662.59765625,93.75,61.5234375,41.9921875
1510191289264.3062,47.36328125,-580.56640625,239.74609375,182.12890625,53.7109375
1510191289268.2124,55.17578125,-319.82421875,521.97265625,200.68359375,64.453125
1510191289272.1187,44.43359375,-47.36328125,645.99609375,80.56640625,47.8515625
1510191289276.025,51.7578125,-229.98046875,392.08984375,31.25,-12.20703125
1510191289277.9934,42.48046875,-122.55859375,520.99609375,161.1328125,15.13671875
1510191289281.8997,15.13671875,291.9921875,950.68359375,251.46484375,60.05859375
1510191289285.806,45.41015625,320.3125,933.59375,125.9765625,46.875
1510191289289.7122,60.05859375,-2.44140625,541.9921875,15.625,7.8125
1510191289293.6184,65.4296875,0.9765625,524.4140625,97.16796875,26.85546875
1510191289297.5247,71.2890625,264.6484375,844.7265625,214.35546875,56.15234375
1510191289301.431,41.9921875,336.42578125,904.296875,142.08984375,95.21484375
1510191289305.3372,23.4375,8.7890625,510.7421875,7.8125,10.7421875
1510191289309.2434,35.15625,-352.5390625,162.59765625,14.16015625,-21.484375
1510191289313.1497,-25.390625,50.78125,587.890625,160.15625,5.859375
1510191289317.056,-68.84765625,413.57421875,960.9375,172.8515625,6.34765625
1510191289320.9622,8.30078125,-49.8046875,505.37109375,15.13671875,-7.8125
1510191289323.0457,54.6875,-358.3984375,168.45703125,-44.43359375,13.671875
1510191289326.952,24.4140625,9.27734375,546.875,92.7734375,71.77734375
1510191289330.8582,2.9296875,164.0625,774.90234375,134.765625,56.15234375
1510191289334.7644,11.71875,-149.90234375,443.359375,-19.53125,52.734375
1510191289338.6707,14.6484375,-478.02734375,68.84765625,-92.28515625,52.734375
1510191289342.577,-25.390625,-524.4140625,70.80078125,28.3203125,43.45703125
1510191289346.4832,-26.3671875,-411.62109375,318.359375,127.44140625,78.125
1510191289350.3894,-20.5078125,-676.26953125,28.3203125,5.859375,63.4765625
1510191289354.2957,-40.52734375,-973.14453125,-377.44140625,-110.3515625,50.29296875
1510191289358.202,-25.87890625,-778.3203125,-132.8125,-46.38671875,63.96484375
1510191289362.1082,1.46484375,-590.8203125,164.0625,107.91015625,21.97265625
1510191289366.0144,12.6953125,-776.85546875,45.8984375,64.94140625,31.73828125
1510191289368.057,11.71875,-980.46875,-319.3359375,-93.75,52.734375
1510191289371.9631,8.7890625,-964.35546875,-431.15234375,-84.47265625,-1.46484375
1510191289375.8694,15.625,-967.28515625,-284.66796875,54.19921875,-47.8515625
1510191289379.7756,0.9765625,-970.703125,-151.85546875,63.96484375,3.41796875
1510191289383.682,-29.78515625,-970.21484375,-375.9765625,-62.5,-10.7421875
1510191289387.5881,8.30078125,-970.21484375,-726.5625,-109.86328125,-52.24609375
1510191289391.4944,6.34765625,-970.21484375,-617.1875,25.87890625,-17.578125
1510191289395.4006,-19.04296875,-970.21484375,-462.890625,105.46875,-21.484375
1510191289399.307,-0.48828125,-970.21484375,-496.09375,-16.11328125,-43.9453125
1510191289403.2131,22.94921875,-967.28515625,-540.0390625,-93.75,17.578125
1510191289407.1194,39.0625,-979.00390625,-504.8828125,42.48046875,26.85546875
1510191289411.0256,-13.18359375,-933.59375,-197.265625,156.73828125,4.8828125
1510191289413.1104,-48.33984375,-917.96875,-108.3984375,18.06640625,75.68359375
1510191289417.0166,47.36328125,-974.12109375,-450.1953125,-85.9375,54.6875
1510191289420.9229,78.61328125,-970.703125,-616.69921875,13.18359375,50.29296875
1510191289424.829,42.48046875,-968.75,-390.625,154.296875,24.4140625
1510191289428.7354,49.31640625,-970.21484375,-213.8671875,109.86328125,20.99609375
1510191289432.6416,37.59765625,-970.21484375,-637.20703125,-47.36328125,-52.734375
1510191289436.5479,45.8984375,-970.21484375,-1000.0,-51.7578125,-78.61328125
1510191289440.454,31.25,-970.21484375,-738.28125,89.84375,35.64453125
1510191289444.3604,-58.59375,-970.21484375,-311.5234375,115.72265625,-5.859375
1510191289448.2666,-11.71875,-970.21484375,-510.7421875,17.578125,-8.30078125
1510191289452.1729,80.078125,-970.21484375,-883.30078125,-47.36328125,8.7890625
1510191289456.079,78.61328125,-970.21484375,-703.61328125,61.5234375,25.390625
1510191289458.123,66.40625,-970.21484375,-375.0,149.90234375,43.45703125
1510191289462.0293,55.17578125,-970.21484375,-615.72265625,13.18359375,8.7890625
1510191289465.9355,54.19921875,-970.21484375,-975.5859375,-80.56640625,7.32421875
1510191289469.8418,28.3203125,-970.21484375,-890.13671875,21.484375,-2.9296875
1510191289473.748,17.578125,-970.21484375,-507.32421875,159.1796875,-6.34765625
1510191289477.6543,41.9921875,-970.21484375,-606.4453125,67.3828125,44.921875
1510191289481.5605,37.59765625,-970.21484375,-978.515625,-81.54296875,3.90625
1510191289485.4668,28.3203125,-970.21484375,-938.4765625,-14.16015625,-49.31640625
1510191289489.373,40.52734375,-970.21484375,-552.734375,153.3203125,-5.859375
1510191289493.2793,80.078125,-970.21484375,-456.0546875,126.953125,-3.90625
1510191289497.1855,73.2421875,-970.21484375,-733.88671875,-6.8359375,36.1328125
1510191289501.0918,45.41015625,-970.21484375,-828.61328125,-13.18359375,80.078125
1510191289517.8271,52.734375,-970.21484375,-500.48828125,102.05078125,71.2890625
1510191289521.7334,43.9453125,-970.21484375,-271.97265625,156.25,33.203125
1510191289525.6396,-3.41796875,-970.21484375,-507.32421875,23.4375,3.90625
1510191289529.546,-0.9765625,-970.21484375,-697.75390625,-41.9921875,5.37109375
1510191289533.4521,67.87109375,-970.21484375,-495.1171875,89.35546875,6.8359375
1510191289537.3584,83.984375,-970.21484375,-232.421875,159.66796875,31.25
1510191289541.2646,62.98828125,-970.21484375,-325.68359375,42.48046875,72.75390625
1510191289545.171,35.64453125,-970.21484375,-481.4453125,-61.5234375,75.1953125
1510191289549.0771,29.296875,-970.21484375,-347.65625,33.203125,63.4765625
1510191289552.9834,38.0859375,-970.21484375,-231.4453125,171.38671875,22.4609375
1510191289556.8896,27.34375,-970.703125,-206.0546875,99.609375,16.6015625
1510191289560.796,18.5546875,-960.44921875,-264.16015625,0.0,-22.4609375
1510191289562.8616,15.625,-991.69921875,-346.6796875,40.0390625,-10.7421875
1510191289566.7678,43.45703125,-866.2109375,-3.41796875,167.96875,55.17578125
1510191289570.674,46.875,-680.17578125,246.58203125,150.87890625,28.3203125
1510191289574.5803,28.80859375,-780.2734375,75.1953125,6.8359375,57.6171875
1510191289578.4866,36.1328125,-933.59375,-156.73828125,-26.3671875,97.16796875
1510191289582.3928,22.94921875,-903.80859375,-60.546875,111.81640625,42.48046875
1510191289586.299,7.32421875,-687.01171875,277.34375,167.96875,74.21875
1510191289590.2053,-7.32421875,-625.9765625,302.24609375,36.1328125,112.79296875
1510191289594.1116,9.765625,-867.67578125,-62.98828125,-30.2734375,40.52734375
1510191289598.0178,53.22265625,-937.01171875,-190.4296875,85.9375,-13.18359375
1510191289601.924,33.69140625,-480.95703125,422.36328125,166.50390625,61.03515625
1510191289605.8303,10.7421875,-385.25390625,551.7578125,50.78125,61.03515625
1510191289607.8914,20.01953125,-829.58984375,52.24609375,-36.62109375,-6.8359375
1510191289611.7976,3.90625,-761.71875,112.79296875,54.19921875,32.2265625
1510191289615.7039,12.20703125,-337.890625,592.28515625,176.26953125,28.3203125
1510191289619.61,58.10546875,-263.671875,690.4296875,99.12109375,19.04296875
1510191289623.5164,14.6484375,-531.25,372.0703125,-23.92578125,76.66015625
1510191289627.4226,-7.32421875,-787.59765625,105.46875,15.13671875,53.7109375
1510191289631.3289,58.59375,-562.5,385.7421875,157.2265625,18.5546875
1510191289635.235,24.4140625,-177.24609375,802.734375,152.83203125,75.1953125
1510191289639.1414,4.39453125,-606.4453125,314.453125,-15.13671875,62.01171875
1510191289643.0476,51.7578125,-920.8984375,-91.30859375,-67.3828125,61.03515625
1510191289646.9539,36.1328125,-426.26953125,432.12890625,85.44921875,63.4765625
1510191289650.86,43.45703125,-194.82421875,738.76953125,158.203125,22.94921875
1510191289652.9446,46.38671875,-491.2109375,416.50390625,32.71484375,-19.04296875
1510191289656.8508,-2.9296875,-666.015625,142.578125,-68.84765625,30.76171875
1510191289660.757,-9.765625,-519.53125,282.71484375,47.8515625,63.4765625
1510191289664.6633,31.25,-403.3203125,494.140625,169.43359375,58.59375
1510191289668.5696,42.96875,-485.83984375,416.015625,57.12890625,78.125
1510191289672.4758,19.53125,-858.88671875,-47.8515625,-56.640625,-24.4140625
1510191289676.382,13.18359375,-881.34765625,-94.23828125,-13.18359375,-20.5078125
1510191289680.2883,21.97265625,-533.69140625,354.4921875,133.7890625,83.0078125
1510191289684.1946,-20.5078125,-735.83984375,221.6796875,100.5859375,63.4765625
1510191289688.1008,-20.01953125,-853.515625,-14.16015625,-60.05859375,23.92578125
1510191289692.007,32.71484375,-740.234375,15.625,-57.6171875,53.22265625
1510191289695.9133,60.546875,-609.375,237.79296875,116.69921875,61.03515625
1510191289697.955,70.3125,-442.3828125,463.8671875,118.65234375,59.08203125
1510191289701.8613,42.48046875,-549.31640625,286.62109375,-42.96875,77.63671875
1510191289705.7676,10.7421875,-802.734375,-8.7890625,-37.109375,54.19921875
1510191289709.6738,18.5546875,-734.375,126.46484375,103.515625,42.48046875
1510191289713.58,31.25,-482.421875,460.9375,182.12890625,41.9921875
1510191289717.4863,19.53125,-664.55078125,282.71484375,49.31640625,39.55078125
1510191289721.3926,1.953125,-942.87109375,-97.16796875,-65.4296875,40.52734375
1510191289725.2988,45.8984375,-1000.0,-237.79296875,19.53125,-5.859375
1510191289729.205,56.640625,-801.7578125,100.09765625,138.18359375,-7.8125
1510191289733.1113,0.0,-515.13671875,443.359375,67.3828125,38.57421875
1510191289737.0176,2.9296875,-762.20703125,118.1640625,-53.22265625,14.16015625
1510191289740.9238,30.76171875,-956.0546875,-94.7265625,12.20703125,-44.921875
1510191289742.9883,48.33984375,-604.4921875,311.03515625,145.99609375,-30.76171875
1510191289746.8945,29.78515625,-400.87890625,523.4375,135.7421875,-38.57421875
1510191289750.8008,-3.41796875,-714.35546875,145.01953125,1.953125,-39.55078125
1510191289754.707,18.5546875,-937.98828125,-126.46484375,-51.7578125,-6.8359375
1510191289758.6133,41.9921875,-608.88671875,223.6328125,103.515625,4.8828125
1510191289762.5195,47.36328125,-431.640625,505.37109375,181.640625,25.390625
1510191289766.4258,40.0390625,-752.44140625,149.90234375,11.71875,24.90234375
1510191289770.332,0.9765625,-1000.0,-317.3828125,-91.796875,43.9453125
1510191289774.2383,14.16015625,-786.1328125,-27.83203125,41.015625,25.87890625
1510191289778.1445,62.5,-447.75390625,491.2109375,152.34375,19.53125
1510191289782.0508,48.828125,-606.4453125,324.21875,44.43359375,41.9921875
1510191289785.957,-6.34765625,-932.6171875,-70.3125,-67.87109375,-7.8125
1510191289788.0195,-15.13671875,-818.84765625,20.01953125,16.6015625,-13.18359375
1510191289791.9258,35.64453125,-409.1796875,492.1875,165.0390625,79.58984375
1510191289795.832,14.16015625,-497.55859375,430.6640625,62.01171875,57.12890625
1510191289799.7383,-16.6015625,-806.640625,56.640625,-78.61328125,52.24609375
1510191289803.6445,41.015625,-853.02734375,-23.4375,-19.53125,19.53125
1510191289807.5508,51.7578125,-704.58984375,228.02734375,123.53515625,-25.87890625
1510191289811.457,38.0859375,-745.60546875,260.7421875,124.51171875,35.15625
1510191289815.3633,22.94921875,-968.26171875,-75.1953125,-40.0390625,20.5078125
1510191289819.2695,-4.39453125,-853.515625,-25.390625,-83.0078125,15.625
1510191289823.1758,1.46484375,-520.01953125,382.8125,104.98046875,71.2890625
1510191289827.082,27.83203125,-308.10546875,681.15234375,185.546875,89.84375
1510191289830.9883,32.2265625,-472.16796875,478.515625,0.48828125,43.9453125
1510191289833.0535,0.48828125,-803.22265625,86.9140625,-89.84375,-15.625
1510191289836.9597,13.18359375,-729.98046875,200.1953125,65.91796875,21.97265625
1510191289840.866,37.59765625,-333.984375,659.66796875,190.91796875,62.01171875
1510191289844.7722,18.06640625,-308.10546875,657.2265625,89.84375,42.96875
1510191289848.6785,29.296875,-564.94140625,339.35546875,-35.15625,32.2265625
1510191289852.5847,53.22265625,-729.00390625,227.05078125,36.62109375,37.109375
1510191289856.491,24.4140625,-682.6171875,425.78125,183.59375,57.6171875
1510191289860.3972,9.27734375,-392.08984375,713.8671875,105.46875,88.8671875
1510191289864.3035,0.0,-432.12890625,580.56640625,-35.15625,74.70703125
1510191289868.2097,-5.859375,-753.41796875,261.71875,-19.53125,12.20703125
1510191289872.116,58.10546875,-504.8828125,555.17578125,131.34765625,18.5546875
1510191289876.0222,75.1953125,-221.19140625,854.4921875,166.015625,-0.48828125
1510191289893.0947,26.3671875,-452.63671875,568.84765625,3.90625,1.46484375
1510191289897.001,9.27734375,-819.3359375,151.85546875,-68.359375,64.94140625
1510191289900.9072,29.78515625,-858.3984375,166.9921875,29.78515625,55.6640625
1510191289904.8135,29.296875,-796.38671875,363.76953125,92.28515625,56.15234375
1510191289908.7197,-34.1796875,-978.515625,-8.7890625,-51.7578125,39.0625
1510191289912.626,-37.109375,-972.65625,-652.34375,-176.26953125,7.32421875
1510191289916.5322,14.16015625,-965.33203125,-729.00390625,-36.62109375,-38.57421875
1510191289920.4385,15.625,-971.19140625,-136.23046875,120.1171875,-27.83203125
1510191289924.3447,-12.6953125,-970.21484375,-109.86328125,8.30078125,-5.37109375
1510191289928.251,3.90625,-970.21484375,-764.16015625,-163.0859375,10.25390625
1510191289932.1572,2.44140625,-970.21484375,-846.6796875,-96.19140625,87.890625
1510191289936.0635,-9.27734375,-970.21484375,-288.57421875,133.30078125,40.0390625
1510191289938.126,21.97265625,-970.21484375,-126.953125,106.93359375,-2.44140625
1510191289942.0322,-15.625,-970.21484375,-704.1015625,-100.09765625,13.18359375
1510191289945.9385,-14.6484375,-970.21484375,-945.80078125,-123.046875,7.32421875
1510191289949.8447,52.24609375,-970.21484375,-311.5234375,84.9609375,49.8046875
1510191289953.751,38.0859375,-970.21484375,22.4609375,138.18359375,47.8515625
1510191289957.6572,-12.20703125,-970.21484375,-431.640625,-52.734375,63.96484375
1510191289961.5635,-16.6015625,-970.21484375,-875.9765625,-139.16015625,59.5703125
1510191289965.4697,-2.44140625,-970.21484375,-511.23046875,41.015625,29.78515625
1510191289969.376,5.37109375,-969.7265625,5.859375,156.73828125,35.15625
1510191289973.2822,5.37109375,-970.21484375,-374.51171875,-12.6953125,46.875
1510191289977.1885,-27.83203125,-970.21484375,-718.75,-158.203125,36.62109375
1510191289981.0947,-27.83203125,-970.21484375,-484.375,-16.6015625,-9.765625
1510191289983.1594,9.765625,-970.21484375,-46.875,165.52734375,-44.43359375
1510191289987.0657,0.48828125,-970.703125,-12.6953125,85.9375,-25.390625
1510191289990.972,22.4609375,-967.7734375,-377.9296875,-58.10546875,22.4609375
1510191289994.8782,34.1796875,-977.05078125,-481.4453125,-17.08984375,24.90234375
1510191289998.7844,5.37109375,-946.77734375,-54.19921875,160.15625,3.90625
1510191290002.6907,12.6953125,-929.6875,136.23046875,122.55859375,28.80859375
1510191290006.597,12.6953125,-971.6796875,-317.87109375,-70.3125,5.37109375
1510191290010.5032,-13.18359375,-971.19140625,-492.67578125,-90.33203125,12.6953125
1510191290014.4094,-22.94921875,-970.21484375,-223.6328125,104.98046875,49.31640625
1510191290018.3157,-26.3671875,-963.8671875,35.64453125,149.4140625,71.2890625
1510191290022.222,-5.37109375,-952.63671875,-44.43359375,-32.71484375,62.98828125
1510191290026.1282,50.29296875,-990.72265625,-463.8671875,-127.9296875,-16.6015625
1510191290028.1902,34.66796875,-897.94921875,-246.09375,46.875,27.83203125
1510191290032.0964,-1.953125,-659.1796875,360.3515625,179.6875,76.171875
1510191290036.0027,-11.71875,-795.41015625,218.26171875,25.390625,28.80859375
1510191290039.909,-34.1796875,-987.3046875,-375.9765625,-124.0234375,7.8125
1510191290043.8152,-17.08984375,-975.09765625,-438.4765625,-30.2734375,-12.20703125
1510191290047.7214,8.30078125,-881.34765625,53.7109375,150.87890625,-6.8359375
1510191290051.6277,-22.4609375,-851.07421875,201.66015625,58.10546875,51.7578125
1510191290055.534,-28.80859375,-953.125,-317.87109375,-119.140625,39.0625
1510191290059.4402,1.46484375,-1000.0,-756.8359375,-33.69140625,6.8359375
1510191290063.3464,40.52734375,-774.4140625,-101.5625,169.43359375,45.41015625
1510191290067.2527,30.2734375,-593.75,390.625,137.6953125,34.1796875
1510191290071.159,-11.23046875,-863.76953125,-133.30078125,-60.546875,-6.34765625
1510191290072.7231,-17.08984375,-1000.0,-598.14453125,-102.5390625,-12.6953125
1510191290076.6294,-19.53125,-865.72265625,-208.0078125,83.984375,4.39453125
1510191290080.5356,-40.52734375,-598.6328125,352.5390625,151.3671875,15.625
1510191290084.442,-35.64453125,-764.6484375,81.54296875,-35.15625,53.22265625
1510191290088.3481,-29.78515625,-1000.0,-378.41796875,-146.484375,60.546875
1510191290092.2544,12.6953125,-915.52734375,-213.8671875,-8.7890625,41.9921875
1510191290096.1606,33.203125,-728.02734375,284.1796875,124.0234375,23.92578125
1510191290100.067,-3.41796875,-814.94140625,51.26953125,9.27734375,5.859375
1510191290103.9731,-30.2734375,-999.51171875,-457.03125,-124.51171875,9.765625
1510191290107.8794,0.0,-929.19921875,-146.484375,-3.90625,39.0625
1510191290111.7856,11.71875,-527.83203125,460.44921875,173.828125,63.96484375
1510191290115.692,-15.13671875,-478.515625,511.23046875,66.89453125,49.31640625
1510191290117.7534,-45.41015625,-867.67578125,5.859375,-106.93359375,-12.6953125
1510191290121.6597,-43.45703125,-989.2578125,-189.94140625,-65.4296875,-15.13671875
1510191290125.566,-32.2265625,-685.05859375,234.375,128.90625,0.9765625
1510191290129.4722,-23.4375,-479.4921875,508.7890625,125.9765625,57.6171875
1510191290133.3784,-20.99609375,-778.80859375,147.4609375,-68.84765625,58.10546875
1510191290137.2847,-29.296875,-1000.0,-241.2109375,-124.51171875,4.8828125
1510191290141.191,20.01953125,-846.6796875,51.26953125,74.70703125,31.25
1510191290145.0972,40.0390625,-665.52734375,425.29296875,180.17578125,43.9453125
1510191290149.0034,-8.7890625,-676.7578125,322.265625,-21.97265625,16.6015625
1510191290152.9097,-27.34375,-798.33984375,103.515625,-145.01953125,58.59375
1510191290156.816,11.71875,-715.8203125,224.609375,28.80859375,116.2109375
1510191290160.7222,30.76171875,-337.40234375,671.875,173.33984375,28.80859375
1510191290162.806,0.0,-333.49609375,649.90234375,32.71484375,-31.25
1510191290166.7122,-44.921875,-730.95703125,185.05859375,-133.30078125,19.04296875
1510191290170.6184,-12.6953125,-875.0,46.38671875,-45.8984375,44.43359375
1510191290174.5247,24.90234375,-436.5234375,545.8984375,155.76171875,37.109375
1510191290178.431,-3.90625,-220.703125,785.15625,84.47265625,19.04296875
1510191290182.3372,-40.52734375,-719.23828125,267.08984375,-107.421875,23.4375
1510191290186.2434,-8.30078125,-1000.0,-209.47265625,-110.83984375,51.7578125
1510191290190.1497,40.0390625,-751.46484375,161.1328125,90.8203125,-3.90625
1510191290194.056,27.34375,-220.703125,859.86328125,153.80859375,-7.8125
1510191290197.9622,-6.34765625,-432.12890625,611.81640625,-10.7421875,20.5078125
1510191290201.8684,-19.04296875,-941.89453125,83.49609375,-92.7734375,-4.39453125
1510191290205.7747,20.5078125,-620.1171875,423.828125,47.8515625,62.5
1510191290208.3186,55.17578125,-93.75,976.5625,176.26953125,56.15234375
1510191290212.2249,21.484375,-350.09765625,703.125,24.90234375,24.4140625
1510191290216.131,1.953125,-885.7421875,121.09375,-119.62890625,22.94921875
1510191290220.0374,12.6953125,-757.8125,221.6796875,12.20703125,14.16015625
1510191290223.9436,19.53125,-240.234375,778.80859375,146.97265625,16.6015625
1510191290227.8499,4.39453125,-439.94140625,627.44140625,20.99609375,13.671875
1510191290231.756,16.11328125,-965.33203125,-145.01953125,-116.69921875,13.18359375
1510191290235.6624,1.46484375,-907.71484375,-142.08984375,-23.92578125,16.11328125
1510191290239.5686,-1.46484375,-372.55859375,602.5390625,172.36328125,41.50390625
1510191290243.4749,31.73828125,-312.98828125,705.56640625,137.20703125,16.6015625
1510191290247.381,28.3203125,-821.2890625,163.0859375,-65.4296875,-21.97265625
1510191290251.2874,23.92578125,-937.98828125,-26.85546875,-93.75,20.01953125
1510191290267.8591,13.18359375,-520.01953125,433.59375,98.6328125,68.359375
1510191290271.7654,43.9453125,-280.76171875,747.0703125,152.83203125,40.52734375
1510191290275.6716,41.50390625,-612.79296875,384.27734375,-30.2734375,22.94921875
1510191290279.578,9.27734375,-887.6953125,51.26953125,-108.88671875,62.98828125
1510191290283.4841,14.6484375,-711.9140625,271.97265625,69.82421875,30.76171875
1510191290287.3904,4.8828125,-486.81640625,593.26171875,189.453125,-37.109375
1510191290291.2966,15.13671875,-696.2890625,379.8828125,16.11328125,4.39453125
1510191290295.203,19.53125,-972.65625,-6.8359375,-133.7890625,29.78515625
1510191290299.1091,15.625,-855.46875,88.8671875,0.9765625,5.37109375
1510191290303.0154,31.73828125,-719.23828125,356.4453125,181.15234375,-9.27734375
1510191290306.9216,16.11328125,-715.8203125,353.02734375,68.84765625,5.859375
1510191290310.828,30.2734375,-780.2734375,158.69140625,-91.30859375,66.40625
1510191290312.893,58.10546875,-996.09375,-54.6875,-3.90625,87.890625
1510191290316.7993,16.11328125,-708.49609375,309.08203125,183.10546875,58.10546875
1510191290320.7056,4.39453125,-367.1875,644.04296875,159.1796875,43.9453125
1510191290324.6118,11.23046875,-688.96484375,269.04296875,-34.1796875,58.10546875
1510191290328.518,9.765625,-1000.0,-188.4765625,-87.40234375,51.7578125
1510191290332.4243,25.390625,-880.859375,-45.8984375,101.5625,0.0
1510191290336.3306,41.9921875,-550.78125,415.52734375,180.6640625,3.90625
1510191290340.2368,29.78515625,-668.9453125,302.734375,-4.39453125,31.25
1510191290344.143,5.37109375,-997.0703125,-277.83203125,-99.12109375,-17.08984375
1510191290348.0493,3.90625,-935.546875,-336.42578125,54.6875,-42.96875
1510191290351.9556,20.5078125,-540.0390625,418.45703125,203.61328125,39.55078125
1510191290355.8618,26.85546875,-575.68359375,497.55859375,78.125,63.96484375
1510191290357.9236,-17.08984375,-954.58984375,-94.7265625,-85.44921875,30.2734375
1510191290361.8298,0.48828125,-959.9609375,-133.7890625,6.34765625,9.27734375
1510191290365.736,40.0390625,-530.2734375,480.46875,194.3359375,39.55078125
1510191290369.6423,27.34375,-408.203125,629.39453125,119.62890625,65.4296875
1510191290373.5486,5.37109375,-855.46875,-1.46484375,-73.2421875,4.8828125
1510191290377.4548,-26.3671875,-1000.0,-316.40625,-42.48046875,-12.6953125
1510191290381.361,-19.53125,-775.390625,167.96875,151.3671875,9.765625
1510191290385.2673,40.52734375,-484.375,635.7421875,174.31640625,31.25
1510191290389.1736,43.45703125,-752.9296875,121.09375,-21.97265625,42.96875
1510191290393.0798,-6.34765625,-1000.0,-367.67578125,-81.0546875,47.36328125
1510191290396.986,1.46484375,-721.19140625,243.1640625,104.4921875,36.62109375
1510191290400.8923,39.55078125,-331.0546875,737.3046875,208.49609375,18.06640625
1510191290402.9578,65.91796875,-681.15234375,368.65234375,39.55078125,-20.99609375
1510191290406.864,14.6484375,-1000.0,-64.94140625,-92.28515625,9.27734375
1510191290410.7703,-39.0625,-848.14453125,109.86328125,41.015625,-1.953125
1510191290414.6765,31.25,-493.1640625,593.75,191.40625,-0.9765625
1510191290418.5828,28.80859375,-638.671875,502.9296875,63.4765625,11.23046875
1510191290422.489,-47.36328125,-969.7265625,-79.58984375,-111.328125,-17.578125
1510191290426.3953,-3.41796875,-958.0078125,-163.57421875,-18.06640625,-47.36328125
1510191290430.3015,67.3828125,-715.33203125,376.953125,181.640625,13.671875
1510191290434.2078,44.43359375,-798.33984375,363.76953125,103.515625,39.0625
1510191290438.114,-10.25390625,-975.09765625,27.34375,-88.8671875,17.578125
1510191290442.0203,-6.8359375,-980.46875,-26.3671875,-80.078125,45.8984375
1510191290445.9265,21.97265625,-732.421875,356.93359375,131.8359375,92.28515625
1510191290447.989,29.296875,-417.48046875,705.56640625,180.6640625,83.0078125
1510191290451.8953,10.7421875,-698.73046875,348.6328125,-9.765625,2.9296875
1510191290455.8015,-17.08984375,-1000.0,-94.23828125,-81.0546875,-4.8828125
1510191290459.7078,-31.25,-911.1328125,72.265625,80.56640625,-33.203125
1510191290463.614,-4.8828125,-497.0703125,617.1875,165.0390625,34.66796875
1510191290467.5203,22.4609375,-659.1796875,351.07421875,-0.48828125,20.01953125
1510191290471.4265,-8.30078125,-995.60546875,-146.97265625,-126.46484375,10.25390625
1510191290475.3328,4.8828125,-1000.0,-115.72265625,23.4375,97.65625
1510191290479.239,24.4140625,-767.578125,258.30078125,183.59375,60.05859375
1510191290483.1453,-1.953125,-581.54296875,504.39453125,57.6171875,33.69140625
1510191290487.0515,6.34765625,-925.29296875,-80.078125,-100.5859375,-3.41796875
1510191290490.9578,9.27734375,-994.140625,-246.58203125,-44.43359375,29.296875
1510191290493.0232,14.16015625,-573.2421875,410.64453125,163.57421875,80.56640625
1510191290496.9294,18.5546875,-412.109375,672.36328125,147.94921875,57.6171875
1510191290500.8357,-20.99609375,-810.546875,92.7734375,-74.21875,-4.39453125
1510191290504.742,-51.26953125,-1000.0,-300.29296875,-99.609375,22.94921875
1510191290508.6482,-22.4609375,-772.4609375,172.8515625,93.75,64.453125
1510191290512.5544,20.01953125,-672.36328125,468.75,140.13671875,18.5546875
1510191290516.4607,37.59765625,-916.015625,9.27734375,-15.625,16.11328125
1510191290520.367,30.76171875,-997.55859375,-591.796875,-122.55859375,19.04296875
1510191290524.2732,-2.44140625,-897.94921875,-258.7890625,29.78515625,-22.94921875
1510191290528.1794,-12.20703125,-610.83984375,476.07421875,201.171875,-22.4609375
1510191290532.0857,0.48828125,-732.421875,275.390625,37.59765625,34.1796875
1510191290535.992,-12.6953125,-999.0234375,-258.30078125,-133.7890625,42.48046875
1510191290538.0513,-1.953125,-947.265625,-172.8515625,5.859375,28.80859375
1510191290541.9575,20.5078125,-715.33203125,333.984375,200.68359375,53.7109375
1510191290545.8638,10.25390625,-759.765625,311.03515625,104.4921875,35.15625
1510191290549.77,9.765625,-984.86328125,-172.36328125,-69.3359375,15.625
1510191290553.6763,24.4140625,-981.4453125,-291.015625,-37.59765625,22.4609375
1510191290557.5825,22.4609375,-919.43359375,144.53125,164.0625,23.4375
1510191290561.4888,-5.859375,-897.94921875,226.5625,158.69140625,62.98828125
1510191290565.395,2.9296875,-969.7265625,-307.6171875,-53.22265625,44.921875
1510191290569.3013,27.34375,-985.3515625,-433.10546875,-75.68359375,8.7890625
1510191290573.2075,44.921875,-907.2265625,-22.94921875,119.62890625,9.27734375
1510191290577.1138,43.45703125,-832.51953125,324.21875,171.875,19.04296875
1510191290581.02,26.3671875,-928.22265625,64.94140625,-9.765625,53.22265625
1510191290583.086,-10.25390625,-972.16796875,-369.62890625,-83.984375,16.6015625
1510191290586.9922,-37.109375,-978.515625,-244.62890625,79.58984375,-11.23046875
1510191290590.8984,-6.8359375,-858.3984375,250.48828125,211.9140625,57.12890625
1510191290594.8047,20.01953125,-832.51953125,229.00390625,49.31640625,75.68359375
1510191290598.711,30.76171875,-974.609375,-283.203125,-110.3515625,34.1796875
1510191290602.6172,30.76171875,-978.515625,-395.01953125,20.99609375,22.4609375
1510191290606.5234,16.11328125,-952.63671875,-63.4765625,200.1953125,-15.625
1510191290610.4297,9.765625,-882.8125,196.2890625,106.4453125,-31.73828125
1510191290614.336,-4.39453125,-927.24609375,-18.06640625,-63.96484375,-7.8125
1510191290618.2422,-17.08984375,-1000.0,-296.38671875,-17.578125,6.8359375
1510191290622.1484,6.34765625,-736.328125,155.76171875,193.359375,19.04296875
1510191290626.0547,16.6015625,-468.26171875,593.75,187.98828125,56.15234375
1510191290643.1267,-20.5078125,-772.94921875,166.015625,-7.8125,17.08984375
1510191290647.033,-16.6015625,-1000.0,-327.63671875,-73.73046875,24.90234375
1510191290650.9392,18.06640625,-875.9765625,-46.38671875,81.0546875,22.4609375
1510191290654.8455,10.7421875,-642.578125,434.5703125,189.94140625,-29.78515625
1510191290658.7517,-12.20703125,-810.05859375,195.3125,21.484375,-32.2265625
1510191290662.658,-37.109375,-997.0703125,-521.484375,-99.609375,-6.8359375
1510191290666.5642,-13.671875,-951.171875,-495.1171875,64.453125,-6.34765625
1510191290670.4705,25.390625,-812.5,248.046875,209.47265625,11.71875
1510191290674.3767,38.0859375,-831.0546875,248.53515625,72.75390625,42.96875
1510191290678.283,16.11328125,-970.21484375,-370.1171875,-78.125,-23.4375
1510191290682.1892,-49.31640625,-994.62890625,-424.8046875,8.7890625,-5.37109375
1510191290686.0955,-11.23046875,-853.02734375,164.55078125,184.08203125,16.6015625
1510191290688.1582,33.203125,-805.17578125,307.12890625,113.28125,43.45703125
1510191290692.0645,2.9296875,-965.33203125,-234.86328125,-81.0546875,36.62109375
1510191290695.9707,-5.859375,-1000.0,-537.59765625,-61.5234375,-38.0859375
1510191290699.877,18.5546875,-848.14453125,14.16015625,152.83203125,41.9921875
1510191290703.7832,26.3671875,-800.78125,336.9140625,167.48046875,62.01171875
1510191290707.6895,-6.8359375,-974.12109375,-263.671875,-38.0859375,-34.1796875
1510191290711.5957,-12.6953125,-988.28125,-650.390625,-106.93359375,29.78515625
1510191290715.502,9.27734375,-907.2265625,-194.82421875,81.54296875,42.48046875
1510191290719.4082,0.0,-872.55859375,232.91015625,187.5,-10.7421875
1510191290723.3145,-18.5546875,-967.28515625,-189.453125,-2.9296875,14.6484375
1510191290727.2207,0.48828125,-978.515625,-535.15625,-130.37109375,64.453125
1510191290731.127,42.96875,-955.56640625,-267.08984375,41.50390625,53.7109375
1510191290733.047,37.109375,-877.44140625,264.16015625,209.47265625,20.5078125
1510191290736.9534,14.6484375,-905.76171875,313.4765625,75.1953125,43.9453125
1510191290740.8596,3.41796875,-974.609375,-70.80078125,-101.07421875,81.0546875
1510191290744.7659,12.6953125,-976.5625,-152.83203125,-12.6953125,73.2421875
1510191290748.672,5.37109375,-870.1171875,280.2734375,187.98828125,41.015625
1510191290752.5784,-5.37109375,-882.8125,366.2109375,135.25390625,-16.6015625
1510191290756.4846,-20.5078125,-982.91015625,-86.9140625,-55.17578125,19.53125
1510191290760.3909,-11.23046875,-962.890625,-243.65234375,-50.29296875,39.55078125
1510191290764.297,38.0859375,-984.375,-9.27734375,146.97265625,1.953125
1510191290768.2034,57.12890625,-897.94921875,261.71875,175.29296875,-15.625
1510191290772.1096,50.78125,-863.76953125,187.01171875,-2.9296875,-42.96875
1510191290776.0159,18.5546875,-1000.0,-238.28125,-68.84765625,-27.83203125
1510191290778.076,3.41796875,-857.421875,57.6171875,97.16796875,68.84765625
1510191290781.9822,18.5546875,-581.54296875,605.95703125,211.9140625,94.23828125
1510191290785.8884,-23.4375,-760.7421875,450.1953125,32.2265625,67.87109375
1510191290789.7947,-50.29296875,-986.81640625,-101.07421875,-133.7890625,28.3203125
1510191290793.701,-32.2265625,-960.9375,-163.57421875,8.7890625,-3.41796875
1510191290797.6072,-14.6484375,-839.84375,314.94140625,204.58984375,2.44140625
1510191290801.5134,33.69140625,-830.078125,440.4296875,103.515625,37.59765625
1510191290805.4197,23.4375,-945.3125,26.3671875,-66.40625,60.05859375
1510191290809.326,12.6953125,-1000.0,-377.9296875,-6.34765625,1.953125
1510191290813.2322,15.625,-779.78515625,209.9609375,178.22265625,-31.73828125
1510191290817.1384,-3.90625,-590.33203125,703.61328125,135.7421875,1.46484375
1510191290821.0447,-9.765625,-851.07421875,175.29296875,-54.6875,9.765625
1510191290823.1174,-15.625,-1000.0,-245.1171875,-87.890625,-19.04296875
1510191290827.0237,-7.32421875,-821.2890625,220.21484375,97.16796875,24.4140625
1510191290830.93,1.953125,-634.765625,628.90625,175.29296875,9.765625
1510191290834.8362,-20.99609375,-857.91015625,236.328125,-5.859375,5.859375
1510191290838.7424,-22.4609375,-995.1171875,-282.71484375,-107.421875,41.9921875
1510191290842.6487,37.59765625,-946.2890625,-146.484375,53.22265625,21.97265625
1510191290846.555,59.5703125,-841.30859375,420.8984375,196.2890625,43.9453125
1510191290850.4612,22.4609375,-885.25390625,160.64453125,45.41015625,43.45703125
1510191290854.3674,2.9296875,-988.28125,-434.08203125,-104.98046875,-7.32421875
1510191290858.2737,-5.859375,-953.61328125,-136.71875,13.671875,11.23046875
1510191290862.18,-13.18359375,-712.890625,453.125,203.61328125,13.18359375
1510191290866.0862,-20.01953125,-676.7578125,539.0625,103.515625,78.125
1510191290868.1406,-9.27734375,-911.1328125,111.328125,-96.19140625,124.0234375
1510191290872.0469,-0.9765625,-995.60546875,-120.1171875,-61.5234375,62.01171875
1510191290875.9531,27.34375,-796.875,281.73828125,132.32421875,84.47265625
1510191290879.8594,44.43359375,-686.03515625,500.48828125,164.55078125,56.640625
1510191290883.7656,5.37109375,-885.7421875,119.62890625,-31.25,31.25
1510191290887.6719,4.39453125,-982.91015625,-297.8515625,-68.359375,78.61328125
1510191290891.5781,17.08984375,-940.91796875,-68.84765625,136.23046875,79.1015625
1510191290895.4844,9.765625,-921.38671875,209.9609375,195.3125,30.2734375
1510191290899.3906,-2.44140625,-904.296875,112.3046875,9.27734375,58.10546875
1510191290903.2969,-3.41796875,-967.28515625,-143.5546875,-76.66015625,41.50390625
1510191290907.2031,6.8359375,-966.796875,-62.98828125,67.3828125,48.33984375
1510191290911.1094,-2.44140625,-635.25390625,423.33984375,195.80078125,26.85546875
1510191290913.1724,8.7890625,-589.84375,420.8984375,80.56640625,1.46484375
1510191290917.0786,13.671875,-937.01171875,-71.2890625,-62.01171875,-5.859375
1510191290920.9849,34.1796875,-991.2109375,-199.70703125,29.78515625,-7.8125
1510191290924.891,42.96875,-597.65625,326.66015625,210.44921875,4.8828125
1510191290928.7974,45.41015625,-438.4765625,527.83203125,145.01953125,-22.4609375
1510191290932.7036,12.20703125,-836.9140625,25.390625,-26.85546875,17.578125
1510191290936.6099,-9.765625,-1000.0,-421.38671875,-23.92578125,80.078125
1510191290940.516,20.5078125,-818.359375,-140.625,140.625,-16.11328125
1510191290944.4224,23.92578125,-424.31640625,472.65625,191.40625,-18.5546875
1510191290948.3286,4.39453125,-617.67578125,211.9140625,-5.37109375,48.828125
1510191290952.2349,-15.13671875,-1000.0,-414.0625,-99.609375,13.18359375
1510191290956.141,2.9296875,-848.6328125,-182.6171875,91.30859375,18.06640625
1510191290958.2112,28.3203125,-433.10546875,406.25,202.63671875,-17.08984375
1510191290962.1174,9.765625,-563.96484375,219.23828125,23.4375,41.50390625
1510191290966.0237,5.37109375,-1000.0,-373.046875,-100.5859375,31.73828125
1510191290969.93,30.2734375,-879.39453125,-263.18359375,49.8046875,3.90625
1510191290973.8362,26.85546875,-427.734375,348.6328125,213.37890625,34.66796875
1510191290977.7424,-6.8359375,-597.65625,207.03125,93.75,30.76171875
1510191290981.6487,-16.11328125,-996.58203125,-536.62109375,-102.05078125,53.22265625
1510191290985.555,17.08984375,-939.94140625,-500.0,-27.34375,62.5
1510191290989.4612,30.2734375,-458.984375,271.97265625,169.43359375,76.66015625
1510191290993.3674,11.71875,-296.875,443.359375,112.3046875,87.40234375
1510191290997.2737,11.71875,-750.9765625,-59.5703125,-51.26953125,51.7578125
1510191291001.18,5.37109375,-949.70703125,-323.73046875,-57.6171875,5.859375
1510191291017.7463,21.97265625,-495.60546875,167.48046875,131.34765625,63.4765625
1510191291021.6526,21.97265625,-238.28125,498.53515625,185.546875,78.125
1510191291025.5588,-3.90625,-578.125,125.48828125,-1.953125,91.796875
1510191291029.465,6.34765625,-879.39453125,-257.8125,-66.40625,30.2734375
1510191291033.3713,23.92578125,-645.01953125,-3.41796875,106.4453125,-0.48828125
1510191291037.2776,28.3203125,-328.125,402.83203125,213.37890625,26.85546875
1510191291041.1838,10.25390625,-564.94140625,156.73828125,56.640625,34.66796875
1510191291045.09,-17.08984375,-839.35546875,-216.796875,-90.33203125,44.43359375
1510191291048.9963,-4.8828125,-659.1796875,-56.640625,37.59765625,41.9921875
1510191291052.9026,43.45703125,-459.9609375,267.08984375,211.42578125,54.19921875
1510191291056.8088,61.5234375,-460.44921875,275.390625,113.28125,86.42578125
1510191291060.715,25.390625,-576.66015625,33.203125,-49.31640625,91.796875
1510191291062.7986,22.4609375,-724.12109375,-129.39453125,-1.953125,98.6328125
1510191291066.7048,53.22265625,-399.4140625,267.08984375,187.5,65.91796875
1510191291070.611,29.78515625,-131.34765625,545.41015625,165.52734375,28.3203125
1510191291074.5173,3.90625,-440.4296875,169.921875,-31.73828125,38.57421875
1510191291078.4236,-23.92578125,-886.71875,-301.26953125,-92.28515625,-4.39453125
1510191291082.3298,-41.015625,-728.02734375,-84.9609375,92.7734375,-26.85546875
1510191291086.236,38.0859375,-353.02734375,330.078125,181.15234375,-2.44140625
1510191291090.1423,51.26953125,-449.21875,188.4765625,2.9296875,45.41015625
1510191291094.0486,26.85546875,-826.66015625,-307.12890625,-111.328125,16.11328125
1510191291097.9548,25.87890625,-911.62109375,-396.97265625,46.875,-20.5078125
1510191291101.861,34.66796875,-318.84765625,332.51953125,201.171875,38.0859375
1510191291105.7673,19.04296875,-210.9375,436.03515625,60.546875,41.50390625
1510191291107.813,-24.4140625,-749.51171875,-130.859375,-85.44921875,61.03515625
1510191291111.7192,-9.765625,-749.51171875,-115.72265625,14.6484375,92.28515625
1510191291115.6255,29.78515625,-240.72265625,441.89453125,187.98828125,30.76171875
1510191291119.5317,26.3671875,-182.6171875,518.06640625,102.05078125,-21.97265625
1510191291123.438,-16.11328125,-703.125,-45.41015625,-80.078125,-24.90234375
1510191291127.3442,-34.66796875,-992.67578125,-333.984375,-45.41015625,12.6953125
1510191291131.2505,2.9296875,-548.33984375,161.62109375,145.5078125,47.8515625
1510191291135.1567,18.5546875,-95.703125,649.90234375,182.6171875,79.58984375
1510191291139.063,35.15625,-589.84375,28.3203125,2.9296875,16.6015625
1510191291142.9692,33.69140625,-994.62890625,-489.74609375,-84.9609375,-10.25390625
1510191291146.8755,-4.8828125,-441.89453125,201.66015625,75.68359375,41.50390625
1510191291150.7817,3.90625,6.34765625,734.86328125,167.96875,63.96484375
1510191291152.8418,-0.48828125,-352.05078125,372.0703125,-16.11328125,50.29296875
1510191291156.748,-39.55078125,-810.546875,-132.32421875,-151.3671875,-10.25390625
1510191291160.6543,-20.99609375,-611.81640625,77.1484375,14.16015625,-8.30078125
1510191291164.5605,-2.44140625,-153.3203125,611.328125,172.8515625,48.828125
1510191291168.4668,-13.671875,-340.33203125,431.15234375,17.08984375,9.765625
1510191291172.373,-46.875,-846.6796875,-138.18359375,-141.11328125,9.27734375
1510191291176.2793,-53.7109375,-907.2265625,-212.40234375,-40.52734375,17.08984375
1510191291180.1855,-30.2734375,-512.20703125,248.046875,137.20703125,1.46484375
1510191291184.0918,-38.57421875,-582.51953125,223.6328125,57.6171875,20.99609375
1510191291187.998,-41.015625,-809.08203125,-125.48828125,-142.08984375,21.484375
1510191291191.9043,-29.296875,-813.4765625,-206.0546875,-114.74609375,74.70703125
1510191291195.8105,0.0,-581.54296875,103.515625,91.30859375,96.19140625
1510191291197.8738,11.71875,-248.53515625,452.1484375,111.81640625,38.0859375
1510191291201.78,-23.4375,-489.74609375,138.671875,-73.2421875,8.30078125
1510191291205.6863,-20.99609375,-884.765625,-297.8515625,-128.90625,9.27734375
1510191291209.5925,21.97265625,-691.89453125,-50.29296875,68.359375,44.921875
1510191291213.4988,16.6015625,-305.6640625,402.83203125,177.734375,8.30078125
1510191291217.405,-7.32421875,-604.98046875,105.95703125,-1.46484375,-34.1796875
1510191291221.3113,-9.765625,-965.8203125,-388.18359375,-113.28125,33.203125
1510191291225.2175,13.18359375,-1000.0,-453.125,23.92578125,21.97265625
1510191291229.1238,48.828125,-694.3359375,39.55078125,170.8984375,39.0625
1510191291233.03,59.08203125,-399.90234375,312.5,65.4296875,29.78515625
1510191291236.9363,36.62109375,-724.609375,-90.8203125,-90.33203125,69.3359375
1510191291240.8425,35.15625,-895.5078125,-246.58203125,-39.55078125,103.02734375
1510191291242.9077,50.29296875,-501.953125,200.1953125,150.390625,-20.01953125
1510191291246.814,34.1796875,-329.58984375,429.19921875,150.390625,-28.3203125
1510191291250.7202,-20.5078125,-820.80078125,-136.71875,-48.33984375,-29.296875
1510191291254.6265,-16.6015625,-1000.0,-434.5703125,-91.796875,-3.90625
1510191291258.5327,49.8046875,-568.359375,121.58203125,99.609375,73.73046875
1510191291262.439,32.2265625,-362.79296875,439.453125,148.4375,53.7109375
1510191291266.3452,28.3203125,-745.60546875,-4.8828125,-38.57421875,68.359375
1510191291270.2515,58.10546875,-1000.0,-622.0703125,-102.05078125,44.921875
1510191291274.1577,45.41015625,-797.8515625,-309.5703125,83.49609375,-30.2734375
1510191291278.064,20.5078125,-297.36328125,469.23828125,201.171875,12.20703125
1510191291281.9702,2.44140625,-512.6953125,245.60546875,36.1328125,59.5703125
1510191291285.8765,10.25390625,-993.1640625,-318.359375,-108.3984375,54.6875
1510191291287.9377,18.5546875,-891.6015625,-227.05078125,5.37109375,16.6015625
1510191291291.844,49.31640625,-431.640625,329.58984375,182.12890625,20.01953125
1510191291295.7502,46.38671875,-489.74609375,292.96875,104.4921875,27.83203125
1510191291299.6565,-1.46484375,-936.5234375,-272.4609375,-80.56640625,5.859375
1510191291303.5627,8.30078125,-986.328125,-397.4609375,-62.5,7.32421875
1510191291307.469,14.16015625,-731.93359375,14.16015625,123.046875,5.859375
1510191291311.3752,-9.27734375,-729.4921875,91.796875,90.8203125,92.28515625
1510191291315.2815,-4.8828125,-966.796875,-448.2421875,-113.76953125,56.15234375
1510191291319.1877,-2.9296875,-1000.0,-600.09765625,-112.79296875,-35.64453125
1510191291323.094,20.01953125,-763.671875,-57.12890625,88.8671875,63.4765625
1510191291327.0002,28.80859375,-530.76171875,299.8046875,163.57421875,47.8515625
1510191291330.9065,-16.11328125,-799.8046875,-19.53125,-2.44140625,8.7890625
1510191291332.9714,-29.296875,-997.55859375,-426.26953125,-111.328125,18.06640625
1510191291336.8777,6.8359375,-909.66796875,-277.83203125,37.59765625,10.25390625
1510191291340.784,52.24609375,-645.5078125,206.0546875,151.85546875,64.453125
1510191291344.6902,22.4609375,-725.09765625,98.6328125,-6.34765625,45.8984375
1510191291348.5964,-17.08984375,-980.46875,-377.44140625,-151.85546875,33.203125
1510191291352.5027,5.859375,-976.07421875,-475.09765625,-33.203125,71.77734375
1510191291356.409,36.1328125,-952.63671875,-202.1484375,141.6015625,50.29296875
1510191291360.3152,16.6015625,-886.71875,1.953125,44.921875,35.64453125
1510191291364.2214,-14.16015625,-929.19921875,-328.125,-110.3515625,23.92578125
1510191291368.1277,1.46484375,-1000.0,-568.84765625,-45.8984375,40.52734375
1510191291372.034,29.296875,-770.99609375,-27.83203125,151.85546875,79.58984375
1510191291375.9402,23.4375,-569.3359375,364.74609375,148.4375,74.70703125
1510191291393.0146,3.41796875,-854.98046875,-62.01171875,-47.8515625,55.17578125
1510191291396.921,13.18359375,-1000.0,-564.94140625,-102.5390625,34.1796875
1510191291400.8271,14.16015625,-885.7421875,-297.36328125,80.56640625,-21.484375
1510191291404.7334,6.8359375,-678.22265625,258.30078125,147.94921875,12.20703125
1510191291408.6396,6.8359375,-819.82421875,31.25,-34.66796875,34.1796875
1510191291412.546,0.48828125,-999.51171875,-715.33203125,-108.88671875,7.8125
1510191291416.4521,19.53125,-950.68359375,-687.5,50.78125,29.78515625
1510191291420.3584,46.875,-750.9765625,132.8125,186.5234375,23.4375
1510191291424.2646,37.109375,-793.45703125,154.78515625,46.875,10.25390625
1510191291428.171,30.2734375,-975.5859375,-429.6875,-92.7734375,20.5078125
1510191291432.0771,47.8515625,-992.67578125,-449.70703125,4.39453125,33.69140625
1510191291435.9834,43.9453125,-810.05859375,113.28125,169.921875,47.36328125
1510191291438.0447,29.296875,-736.328125,232.91015625,125.48828125,17.578125
1510191291441.951,18.5546875,-948.2421875,-290.52734375,-68.84765625,-5.859375
1510191291445.8572,-2.44140625,-1000.0,-533.203125,-59.5703125,-18.5546875
1510191291449.7634,13.18359375,-813.4765625,-25.87890625,155.76171875,-8.30078125
1510191291453.6697,23.92578125,-695.3125,304.19921875,151.85546875,21.484375
1510191291457.576,0.9765625,-928.7109375,-198.2421875,-33.69140625,41.015625
1510191291461.4822,12.20703125,-1000.0,-613.28125,-71.2890625,7.8125
1510191291465.3884,42.96875,-807.6171875,-124.0234375,83.49609375,45.8984375
1510191291469.2947,41.50390625,-647.4609375,346.19140625,162.109375,108.3984375
1510191291473.201,27.34375,-931.640625,-213.8671875,-15.625,29.296875
1510191291477.1072,-2.9296875,-1000.0,-559.5703125,-143.5546875,42.96875
1510191291481.0134,-4.39453125,-905.2734375,-211.9140625,22.4609375,73.73046875
1510191291483.0781,28.80859375,-721.19140625,215.33203125,189.94140625,30.76171875
1510191291486.9844,19.53125,-811.5234375,150.390625,69.3359375,-5.859375
1510191291490.8906,4.39453125,-978.02734375,-369.62890625,-83.984375,-35.15625
1510191291494.7969,-3.41796875,-978.515625,-427.24609375,7.32421875,-27.34375
1510191291498.7031,22.4609375,-815.4296875,105.95703125,194.3359375,-3.90625
1510191291502.6094,28.3203125,-818.84765625,198.2421875,129.39453125,-2.44140625
1510191291506.5156,10.7421875,-982.91015625,-302.24609375,-54.19921875,-23.4375
1510191291510.4219,22.4609375,-964.35546875,-408.203125,-43.9453125,23.4375
1510191291514.3281,49.8046875,-982.421875,-109.375,134.27734375,53.7109375
1510191291518.2344,52.734375,-895.99609375,92.7734375,178.22265625,-14.6484375
1510191291522.1406,35.15625,-857.91015625,18.5546875,16.6015625,-27.83203125
1510191291526.0469,39.55078125,-1000.0,-332.51953125,-43.45703125,28.80859375
1510191291528.1091,35.64453125,-885.25390625,-128.90625,134.765625,54.19921875
1510191291532.0154,31.25,-528.3203125,397.4609375,228.02734375,28.80859375
1510191291535.9216,37.109375,-641.11328125,283.69140625,65.91796875,56.15234375
1510191291539.828,33.203125,-985.83984375,-256.8359375,-41.9921875,93.75
1510191291543.7341,17.578125,-922.36328125,-277.34375,74.21875,101.5625
1510191291547.6404,16.6015625,-697.75390625,168.9453125,211.42578125,49.8046875
1510191291551.5466,17.08984375,-793.9453125,145.01953125,116.2109375,19.53125
1510191291555.453,27.83203125,-975.5859375,-401.85546875,-50.78125,-3.41796875
1510191291559.3591,49.8046875,-1000.0,-696.2890625,-8.7890625,-30.76171875
1510191291563.2654,48.828125,-686.03515625,11.23046875,177.24609375,20.01953125
1510191291567.1716,70.3125,-438.4765625,527.34375,158.69140625,47.36328125
1510191291571.078,61.03515625,-797.8515625,-48.828125,-4.8828125,-36.1328125
1510191291573.1426,29.296875,-1000.0,-435.546875,-13.671875,-59.08203125
1510191291577.0488,46.38671875,-741.69921875,102.5390625,190.4296875,18.06640625
1510191291580.955,33.69140625,-388.671875,568.359375,248.53515625,49.31640625
1510191291584.8613,23.92578125,-687.98828125,137.20703125,39.0625,10.7421875
1510191291588.7676,29.78515625,-1000.0,-338.8671875,-55.6640625,1.953125
1510191291592.6738,41.9921875,-879.8828125,-71.77734375,107.91015625,94.7265625
1510191291596.58,52.24609375,-505.37109375,473.14453125,223.14453125,58.10546875
1510191291600.4863,49.31640625,-644.53125,255.37109375,60.546875,48.33984375
1510191291604.3926,36.1328125,-1000.0,-388.671875,-80.56640625,82.03125
1510191291608.2988,34.1796875,-869.62890625,-169.921875,63.4765625,36.62109375
1510191291612.205,57.12890625,-433.59375,489.2578125,234.86328125,18.5546875
1510191291616.1113,29.296875,-442.3828125,517.578125,143.5546875,20.01953125
1510191291617.6738,9.27734375,-830.078125,38.57421875,-22.94921875,27.83203125
1510191291621.58,41.50390625,-990.72265625,-164.0625,0.48828125,-27.34375
1510191291625.4863,53.7109375,-674.8046875,251.46484375,191.40625,-31.25
1510191291629.3926,62.98828125,-426.7578125,541.015625,190.4296875,33.203125
1510191291633.2988,37.109375,-701.171875,171.875,-5.859375,37.59765625
1510191291637.205,17.08984375,-1000.0,-318.359375,-47.8515625,-12.20703125
1510191291641.1113,66.89453125,-853.02734375,-41.9921875,136.71875,28.80859375
1510191291645.0176,75.1953125,-781.25,237.79296875,188.4765625,-6.34765625
1510191291648.9238,49.31640625,-841.30859375,73.73046875,3.41796875,3.41796875
1510191291652.83,56.640625,-938.4765625,-133.30078125,-91.796875,64.94140625
1510191291656.7363,54.6875,-923.828125,-72.265625,47.36328125,21.484375
1510191291660.6426,41.9921875,-636.71875,304.6875,184.5703125,-44.43359375
1510191291663.2068,19.04296875,-653.3203125,285.15625,73.2421875,-7.8125
1510191291667.113,16.11328125,-923.33984375,-110.83984375,-66.89453125,14.6484375
1510191291671.0193,2.9296875,-983.88671875,-262.20703125,-0.9765625,-41.50390625
1510191291674.9255,8.7890625,-612.3046875,240.72265625,185.05859375,-21.97265625
1510191291678.8318,30.2734375,-517.578125,435.546875,130.859375,-3.41796875
1510191291682.738,21.97265625,-879.8828125,-104.4921875,-62.98828125,4.39453125
1510191291686.6443,44.921875,-1000.0,-573.2421875,-36.62109375,5.859375
1510191291690.5505,41.9921875,-797.36328125,-173.33984375,163.57421875,47.8515625
1510191291694.4568,15.625,-483.3984375,439.94140625,175.29296875,65.4296875
1510191291698.363,18.5546875,-736.81640625,62.01171875,-27.83203125,23.92578125
1510191291702.2693,28.80859375,-1000.0,-494.62890625,-98.14453125,-24.90234375
1510191291706.1755,40.0390625,-801.7578125,-135.25390625,91.30859375,23.92578125
1510191291708.2363,38.57421875,-479.00390625,402.34375,187.98828125,24.90234375
1510191291712.1426,12.20703125,-720.703125,88.8671875,-8.7890625,-8.30078125
1510191291716.0488,6.8359375,-1000.0,-513.671875,-142.578125,40.0390625
1510191291719.955,23.4375,-927.24609375,-412.59765625,17.08984375,25.87890625
1510191291723.8613,33.69140625,-631.34765625,215.33203125,197.75390625,-26.85546875
1510191291727.7676,30.2734375,-748.046875,131.8359375,81.54296875,27.34375
1510191291731.6738,16.11328125,-995.1171875,-572.75390625,-90.33203125,102.5390625
1510191291735.58,3.41796875,-990.234375,-595.703125,-17.578125,36.62109375
1510191291739.4863,12.20703125,-646.97265625,162.109375,181.15234375,34.66796875
1510191291743.3926,28.80859375,-577.1484375,312.5,130.37109375,61.5234375
1510191291747.2988,28.80859375,-945.3125,-188.4765625,-54.19921875,62.98828125
1510191291751.205,20.99609375,-1000.0,-414.0625,-53.22265625,56.15234375
1510191291767.7808,8.30078125,-782.71484375,-25.87890625,132.32421875,11.23046875
1510191291771.687,10.25390625,-621.09375,280.76171875,179.19921875,18.5546875
1510191291775.5933,19.53125,-880.37109375,-147.4609375,-18.06640625,-20.5078125
1510191291779.4995,25.390625,-1000.0,-529.296875,-95.21484375,-35.64453125
1510191291783.4058,38.57421875,-831.0546875,-177.24609375,94.23828125,40.52734375
1510191291787.312,54.19921875,-716.30859375,185.546875,199.70703125,4.39453125
1510191291791.2183,40.0390625,-906.73828125,-119.62890625,39.0625,-30.2734375
1510191291795.1245,23.4375,-997.55859375,-541.015625,-91.30859375,13.671875
1510191291799.0308,6.8359375,-890.13671875,-323.73046875,39.55078125,21.97265625
1510191291802.937,21.484375,-820.80078125,62.98828125,198.73046875,15.625
1510191291806.8433,53.22265625,-855.95703125,32.71484375,80.078125,48.33984375
1510191291810.7495,24.90234375,-901.85546875,-223.6328125,-84.9609375,32.2265625
1510191291812.8123,-7.32421875,-1000.0,-405.2734375,-15.625,-15.13671875
1510191291816.7185,13.18359375,-772.4609375,11.71875,175.29296875,-17.578125
1510191291820.6248,45.8984375,-518.06640625,296.875,146.484375,-17.578125
1510191291824.531,35.15625,-790.52734375,-53.7109375,-34.66796875,23.92578125
1510191291828.4373,18.06640625,-1000.0,-423.33984375,-69.3359375,32.71484375
1510191291832.3435,38.57421875,-828.125,-140.625,123.53515625,8.7890625
1510191291836.2498,54.19921875,-591.30859375,260.7421875,180.6640625,-0.48828125
1510191291840.156,15.625,-778.3203125,71.77734375,0.48828125,42.96875
1510191291844.0623,2.9296875,-992.1875,-369.62890625,-83.0078125,67.87109375
1510191291847.9685,24.90234375,-930.17578125,-423.33984375,76.171875,15.13671875
1510191291851.8748,35.15625,-520.99609375,239.2578125,190.4296875,10.25390625
1510191291855.781,22.4609375,-541.015625,287.59765625,31.25,-11.23046875
1510191291858.8442,18.06640625,-952.63671875,-362.79296875,-64.94140625,-10.7421875
1510191291862.7505,25.390625,-911.62109375,-379.39453125,60.546875,5.859375
1510191291866.6567,38.57421875,-467.28515625,301.7578125,207.51953125,17.08984375
1510191291870.563,41.9921875,-373.046875,421.38671875,109.86328125,20.5078125
1510191291874.4692,20.01953125,-794.43359375,-129.8828125,-71.2890625,44.921875
1510191291878.3755,23.92578125,-1000.0,-430.17578125,-22.94921875,47.8515625
1510191291882.2817,28.3203125,-736.81640625,-4.8828125,165.0390625,-1.46484375
1510191291886.188,17.08984375,-392.08984375,441.89453125,125.0,-0.9765625
1510191291890.0942,3.41796875,-686.5234375,-105.95703125,-48.33984375,27.83203125
1510191291894.0005,30.76171875,-1000.0,-619.140625,-75.68359375,26.3671875
1510191291897.9067,60.05859375,-580.56640625,102.05078125,120.60546875,88.8671875
1510191291901.813,67.87109375,-238.28125,547.36328125,216.30859375,60.05859375
1510191291902.8804,55.6640625,-605.95703125,146.97265625,27.34375,31.25
1510191291906.7866,23.92578125,-861.328125,-186.03515625,-91.30859375,87.890625
1510191291910.6929,26.3671875,-608.88671875,76.171875,65.4296875,106.93359375
1510191291914.599,51.26953125,-252.9296875,507.32421875,217.28515625,43.45703125
1510191291918.5054,43.45703125,-429.19921875,349.609375,63.4765625,58.10546875
1510191291922.4116,23.4375,-889.16015625,-259.765625,-98.14453125,38.0859375
1510191291926.3179,2.9296875,-896.97265625,-332.51953125,-12.6953125,-12.20703125
1510191291930.224,13.671875,-481.4453125,256.34765625,152.34375,29.78515625
1510191291934.1304,34.66796875,-671.38671875,156.25,78.61328125,36.1328125
1510191291938.0366,11.71875,-975.09765625,-274.90234375,-111.81640625,2.44140625
1510191291941.9429,0.48828125,-933.10546875,-282.71484375,-87.890625,32.2265625
1510191291945.849,22.4609375,-692.87109375,78.125,115.234375,29.296875
1510191291947.9082,30.76171875,-468.75,327.63671875,134.27734375,-25.390625
1510191291951.8145,9.27734375,-671.38671875,72.75390625,-72.265625,52.24609375
1510191291955.7207,10.7421875,-1000.0,-403.3203125,-129.8828125,65.4296875
1510191291959.627,31.25,-896.484375,-286.1328125,55.17578125,13.18359375
1510191291963.5332,37.59765625,-594.7265625,222.65625,148.4375,3.41796875
1510191291967.4395,17.578125,-790.52734375,-93.75,-21.484375,1.953125
1510191291971.3457,-20.5078125,-999.0234375,-622.55859375,-145.99609375,-0.48828125
1510191291975.252,-3.41796875,-976.5625,-625.9765625,-19.04296875,36.1328125
1510191291979.1582,43.9453125,-879.39453125,-227.05078125,129.39453125,58.59375
1510191291983.0645,42.48046875,-849.12109375,-80.56640625,19.53125,-18.5546875
1510191291986.9707,22.94921875,-972.16796875,-590.8203125,-146.484375,-55.6640625
1510191291990.877,14.6484375,-995.1171875,-725.09765625,-57.6171875,1.953125
1510191291992.9402,16.6015625,-835.9375,-152.34375,138.671875,44.921875
1510191291996.8464,7.8125,-797.8515625,84.9609375,86.9140625,25.390625
1510191292000.7527,-6.8359375,-974.609375,-469.23828125,-89.35546875,-19.53125
1510191292004.659,4.8828125,-987.3046875,-815.4296875,-81.54296875,-6.8359375
1510191292008.5652,25.87890625,-893.5546875,-311.03515625,114.2578125,20.01953125
1510191292012.4714,34.66796875,-885.25390625,66.89453125,150.87890625,55.6640625
1510191292016.3777,19.53125,-974.609375,-424.8046875,-40.0390625,25.390625
1510191292020.284,-2.44140625,-978.02734375,-989.2578125,-141.6015625,-25.87890625
1510191292024.1902,13.671875,-943.84765625,-599.12109375,21.97265625,-20.01953125
1510191292028.0964,24.90234375,-823.2421875,75.1953125,153.80859375,-21.484375
1510191292032.0027,26.3671875,-891.6015625,-188.96484375,13.18359375,17.578125
1510191292035.909,25.87890625,-979.00390625,-772.4609375,-119.62890625,18.5546875
1510191292037.9722,35.64453125,-986.81640625,-639.16015625,5.859375,-42.48046875
1510191292041.8784,50.78125,-837.40234375,-39.0625,181.640625,-20.01953125
1510191292045.7847,41.50390625,-817.87109375,-15.13671875,66.89453125,83.49609375
1510191292049.691,27.34375,-984.86328125,-583.984375,-114.74609375,42.96875
1510191292053.5972,20.99609375,-969.7265625,-714.84375,-47.8515625,-22.4609375
1510191292057.5034,34.66796875,-964.35546875,-231.93359375,145.5078125,25.87890625
1510191292061.4097,31.73828125,-968.26171875,-203.125,116.69921875,32.2265625
1510191292065.316,20.99609375,-961.9140625,-713.8671875,-70.3125,-7.8125
1510191292069.2222,23.4375,-994.140625,-839.84375,-91.30859375,-31.73828125
1510191292073.1284,33.203125,-865.234375,-376.953125,96.19140625,18.5546875
1510191292077.0347,37.109375,-763.18359375,88.37890625,148.92578125,61.5234375
1510191292080.941,19.53125,-924.31640625,-236.81640625,-18.5546875,8.7890625
1510191292083.0222,7.8125,-983.3984375,-657.71484375,-81.0546875,-9.765625
1510191292086.9285,33.69140625,-939.453125,-417.48046875,100.09765625,34.1796875
1510191292090.8347,43.9453125,-777.83203125,70.3125,236.81640625,64.94140625
1510191292094.741,26.3671875,-817.3828125,-24.90234375,78.61328125,72.265625
1510191292098.6472,30.76171875,-981.4453125,-530.76171875,-60.546875,36.1328125
1510191292102.5535,41.9921875,-970.703125,-677.24609375,60.05859375,-5.37109375
1510191292106.4597,57.12890625,-964.84375,-400.87890625,219.7265625,9.765625
1510191292110.366,54.19921875,-943.84765625,-224.609375,112.3046875,13.671875
1510191292114.2722,20.01953125,-952.63671875,-491.2109375,-46.38671875,-2.9296875
1510191292118.1785,20.5078125,-1000.0,-716.30859375,21.97265625,41.50390625
1510191292122.0847,46.38671875,-806.640625,-253.90625,207.03125,49.31640625
1510191292125.991,46.38671875,-659.1796875,125.9765625,187.01171875,48.33984375
1510191292143.0447,49.31640625,-884.765625,-343.26171875,-2.44140625,62.98828125
1510191292146.951,53.22265625,-1000.0,-812.01171875,-54.6875,41.9921875
1510191292150.8572,44.43359375,-864.2578125,-408.69140625,137.6953125,50.78125
1510191292154.7634,38.57421875,-627.44140625,138.18359375,236.81640625,55.17578125
1510191292158.6697,-15.625,-803.22265625,-156.73828125,30.2734375,44.921875
1510191292162.576,-32.71484375,-1000.0,-808.59375,-91.30859375,32.71484375
1510191292166.4822,15.625,-948.73046875,-725.09765625,71.2890625,10.25390625
1510191292170.3884,45.8984375,-663.0859375,-64.453125,220.21484375,9.27734375
1510191292174.2947,55.17578125,-694.3359375,-52.734375,87.40234375,41.015625
1510191292178.201,45.41015625,-989.2578125,-756.34765625,-63.4765625,46.875
1510191292182.1072,54.19921875,-957.51953125,-801.26953125,22.4609375,83.49609375
1510191292186.0134,72.75390625,-601.5625,30.76171875,184.5703125,83.0078125
1510191292188.077,67.3828125,-586.42578125,176.26953125,126.46484375,25.87890625
1510191292191.9832,46.875,-933.59375,-422.8515625,-34.1796875,-37.59765625
1510191292195.8894,42.96875,-1000.0,-610.83984375,-7.32421875,-14.16015625
1510191292199.7957,65.91796875,-807.6171875,-114.74609375,169.921875,24.90234375
1510191292203.702,54.6875,-623.046875,197.75390625,179.19921875,19.53125
1510191292207.6082,29.78515625,-880.37109375,-270.99609375,-15.13671875,25.87890625
1510191292211.5144,43.45703125,-1000.0,-724.609375,-70.3125,17.08984375
1510191292215.4207,52.24609375,-773.4375,-236.81640625,109.375,32.71484375
1510191292219.327,57.12890625,-559.08203125,278.80859375,187.98828125,44.43359375
1510191292223.2332,51.7578125,-884.27734375,-200.1953125,6.34765625,58.10546875
1510191292227.1394,40.52734375,-1000.0,-564.94140625,-101.07421875,50.78125
1510191292231.0457,63.4765625,-855.46875,-230.46875,65.4296875,19.04296875
1510191292233.1094,76.171875,-533.69140625,267.08984375,222.16796875,58.59375
1510191292237.0156,55.17578125,-611.328125,185.05859375,88.37890625,43.9453125
1510191292240.9219,35.15625,-943.84765625,-332.51953125,-115.72265625,-29.78515625
1510191292244.8281,70.3125,-956.54296875,-426.26953125,-36.62109375,-29.78515625
1510191292248.7344,118.1640625,-652.34375,44.921875,194.82421875,11.23046875
1510191292252.6406,104.98046875,-640.625,140.13671875,126.46484375,29.78515625
1510191292256.5469,85.9375,-924.31640625,-375.48828125,-81.54296875,20.01953125
1510191292260.4531,88.8671875,-974.12109375,-647.94921875,-43.9453125,15.13671875
1510191292264.3594,89.35546875,-961.9140625,-341.30859375,154.78515625,25.390625
1510191292268.2656,89.35546875,-783.69140625,7.8125,162.59765625,19.53125
1510191292272.1719,68.84765625,-760.7421875,-105.46875,-13.671875,1.953125
1510191292276.0781,50.29296875,-1000.0,-513.671875,-76.66015625,1.46484375
1510191292278.1406,74.21875,-828.61328125,-295.8984375,94.7265625,16.6015625
1510191292282.0469,96.6796875,-387.20703125,275.87890625,189.94140625,31.25
1510191292285.9531,76.66015625,-549.31640625,100.09765625,20.01953125,3.90625
1510191292289.8594,39.55078125,-980.46875,-481.4453125,-95.703125,5.859375
1510191292293.7656,41.015625,-873.53515625,-434.5703125,24.90234375,66.89453125
1510191292297.6719,71.77734375,-528.80859375,69.3359375,166.015625,62.5
1510191292301.5781,79.1015625,-661.1328125,1.953125,57.6171875,15.13671875
1510191292305.4844,62.01171875,-954.58984375,-541.015625,-104.00390625,51.26953125
1510191292309.3906,62.5,-999.0234375,-878.90625,-34.1796875,45.8984375
1510191292313.2969,79.58984375,-751.46484375,-356.93359375,160.64453125,20.5078125
1510191292317.2031,71.2890625,-525.390625,104.98046875,119.140625,20.99609375
1510191292321.1094,42.96875,-808.59375,-395.5078125,-68.359375,29.78515625
1510191292323.1729,40.52734375,-1000.0,-825.68359375,-83.49609375,14.16015625
1510191292327.079,62.98828125,-811.5234375,-396.484375,99.12109375,-14.6484375
1510191292330.9854,65.91796875,-496.58203125,111.81640625,146.97265625,79.1015625
1510191292334.8916,38.0859375,-742.67578125,-269.53125,-38.57421875,114.2578125
1510191292338.7979,33.69140625,-1000.0,-850.09765625,-120.60546875,25.390625
1510191292342.704,62.5,-919.43359375,-654.296875,56.15234375,15.13671875
1510191292346.6104,66.89453125,-775.87890625,-122.0703125,169.921875,82.51953125
1510191292350.5166,42.48046875,-863.76953125,-434.08203125,-5.859375,69.3359375
1510191292354.4229,22.94921875,-999.51171875,-1000.0,-159.1796875,28.80859375
1510191292358.329,37.59765625,-931.15234375,-714.35546875,-41.9921875,63.96484375
1510191292362.2354,78.61328125,-612.3046875,-69.82421875,145.5078125,100.09765625
1510191292366.1416,67.87109375,-704.1015625,-101.07421875,55.17578125,63.4765625
1510191292367.7039,32.71484375,-977.5390625,-641.6015625,-115.72265625,90.33203125
1510191292371.61,40.0390625,-992.67578125,-811.5234375,-61.03515625,20.99609375
1510191292375.5164,56.640625,-787.59765625,-324.70703125,137.6953125,-4.8828125
1510191292379.4226,58.10546875,-661.62109375,-26.85546875,114.2578125,71.2890625
1510191292383.3289,38.0859375,-895.01953125,-455.56640625,-82.03125,35.15625
1510191292387.235,35.15625,-988.76953125,-905.76171875,-116.69921875,16.6015625
1510191292391.1414,59.5703125,-933.10546875,-620.60546875,62.98828125,26.85546875
1510191292395.0476,59.08203125,-941.40625,-348.14453125,137.6953125,-4.8828125
1510191292398.9539,34.66796875,-969.7265625,-507.32421875,-28.80859375,24.90234375
1510191292402.86,27.34375,-970.21484375,-705.56640625,-126.953125,82.51953125
1510191292406.7664,60.546875,-976.07421875,-606.4453125,43.9453125,65.91796875
1510191292410.6726,80.56640625,-740.234375,-115.72265625,178.22265625,19.53125
1510191292412.7559,32.71484375,-751.953125,-150.87890625,0.0,0.48828125
1510191292416.662,-5.859375,-979.00390625,-645.01953125,-157.2265625,24.4140625
1510191292420.5684,18.5546875,-986.81640625,-748.046875,-51.26953125,27.83203125
1510191292424.4746,14.6484375,-811.5234375,-279.78515625,103.02734375,43.45703125
1510191292428.3809,-45.8984375,-742.1875,-110.3515625,8.30078125,43.9453125
1510191292432.287,-40.52734375,-942.87109375,-666.50390625,-176.7578125,2.9296875
1510191292436.1934,-30.2734375,-1000.0,-1000.0,-181.15234375,15.13671875
1510191292440.0996,-35.15625,-842.28515625,-649.90234375,-11.71875,75.68359375
1510191292444.0059,-42.48046875,-628.41796875,-83.984375,0.9765625,62.01171875
1510191292447.912,-54.6875,-839.84375,-395.5078125,-178.22265625,35.15625
1510191292451.8184,-55.6640625,-1000.0,-899.90234375,-230.95703125,37.109375
1510191292455.7246,-69.3359375,-850.09765625,-601.07421875,-55.6640625,29.78515625
1510191292458.2708,-58.59375,-535.15625,9.27734375,44.43359375,45.8984375
1510191292462.177,-50.78125,-714.35546875,-246.58203125,-143.5546875,37.109375
1510191292466.0833,-66.40625,-1000.0,-845.21484375,-271.97265625,20.01953125
1510191292469.9895,-63.96484375,-896.484375,-639.6484375,-97.65625,32.2265625
1510191292473.8958,-36.62109375,-519.04296875,18.5546875,57.12890625,56.640625
1510191292477.802,-38.57421875,-675.29296875,-175.78125,-72.265625,30.76171875
1510191292481.7083,-47.8515625,-1000.0,-906.25,-218.75,-10.25390625
1510191292485.6145,-8.7890625,-955.56640625,-819.3359375,-129.8828125,9.27734375
1510191292489.5208,27.34375,-548.33984375,-67.87109375,73.73046875,8.30078125
1510191292493.427,30.2734375,-417.96875,111.328125,41.015625,29.296875
1510191292497.3333,15.625,-850.09765625,-366.2109375,-136.23046875,62.5
1510191292501.2395,12.20703125,-1000.0,-583.984375,-133.7890625,32.2265625
1510191292517.8105,42.96875,-582.51953125,-102.05078125,66.40625,19.04296875
1510191292521.7168,68.359375,-292.96875,254.39453125,122.0703125,37.109375
1510191292525.623,42.48046875,-687.98828125,-177.24609375,-65.4296875,-5.859375
1510191292529.5293,22.4609375,-1000.0,-595.703125,-132.32421875,-41.015625
1510191292533.4355,59.5703125,-643.06640625,-197.265625,74.21875,34.66796875
1510191292537.3418,96.6796875,-420.8984375,154.78515625,202.1484375,80.078125
1510191292541.248,99.12109375,-770.99609375,-217.7734375,14.6484375,38.0859375
1510191292545.1543,86.9140625,-888.18359375,-493.65234375,-113.76953125,37.59765625
1510191292549.0605,98.14453125,-730.95703125,-348.6328125,46.875,33.69140625
1510191292552.9668,102.5390625,-401.85546875,70.80078125,202.1484375,23.92578125
1510191292556.873,88.37890625,-418.9453125,47.36328125,77.1484375,0.48828125
1510191292560.7793,67.87109375,-746.58203125,-369.140625,-83.0078125,-12.20703125
1510191292562.9402,52.734375,-867.67578125,-498.53515625,-2.9296875,-2.9296875
1510191292566.8464,105.46875,-433.59375,23.4375,197.75390625,48.33984375
1510191292570.7527,134.765625,-191.89453125,299.8046875,164.0625,26.85546875
1510191292574.659,100.5859375,-546.38671875,-123.53515625,-25.390625,-6.8359375
1510191292578.5652,88.8671875,-905.2734375,-512.20703125,-33.203125,-21.97265625
1510191292582.4714,95.703125,-647.4609375,-175.29296875,153.80859375,15.13671875
1510191292586.3777,97.65625,-248.53515625,287.109375,210.9375,66.40625
1510191292590.284,79.1015625,-458.0078125,38.0859375,15.13671875,18.06640625
1510191292594.1902,64.94140625,-881.8359375,-461.42578125,-83.49609375,-4.8828125
1510191292598.0964,80.078125,-880.37109375,-434.5703125,90.8203125,41.9921875
1510191292602.0027,81.54296875,-295.41015625,235.3515625,208.984375,41.9921875
1510191292605.909,60.546875,-187.5,321.2890625,53.7109375,52.734375
1510191292608.4526,42.48046875,-779.296875,-317.87109375,-68.359375,38.57421875
1510191292612.359,52.734375,-846.6796875,-385.7421875,52.24609375,-2.9296875
1510191292616.2651,75.68359375,-231.4453125,291.015625,202.63671875,-11.71875
1510191292620.1714,88.8671875,-127.44140625,413.0859375,108.88671875,-18.06640625
1510191292624.0776,80.078125,-681.640625,-183.10546875,-61.03515625,-22.4609375
1510191292627.984,83.0078125,-951.66015625,-468.75,-23.4375,0.9765625
1510191292631.8901,102.5390625,-453.125,79.58984375,188.96484375,68.359375
1510191292635.7964,90.8203125,-13.671875,552.734375,198.73046875,71.2890625
1510191292639.7026,59.08203125,-547.36328125,-58.59375,11.23046875,37.59765625
1510191292643.609,50.78125,-973.6328125,-586.9140625,-46.38671875,56.640625
1510191292647.5151,79.1015625,-407.2265625,56.15234375,133.7890625,38.57421875
1510191292651.4214,87.40234375,32.2265625,578.125,209.9609375,20.5078125
1510191292653.0042,68.359375,-311.03515625,212.40234375,26.3671875,31.73828125
1510191292656.9104,52.24609375,-724.12109375,-270.99609375,-74.21875,17.578125
1510191292660.8167,62.5,-433.59375,16.11328125,80.078125,55.17578125
1510191292664.723,88.8671875,-21.97265625,520.5078125,211.9140625,83.0078125
1510191292668.6292,84.9609375,-212.890625,342.28515625,63.96484375,65.91796875
1510191292672.5354,56.15234375,-672.8515625,-180.6640625,-71.77734375,91.30859375
1510191292676.4417,49.31640625,-659.1796875,-181.15234375,53.22265625,95.703125
1510191292680.348,71.2890625,-153.80859375,390.625,212.890625,60.05859375
1510191292684.2542,57.6171875,-346.6796875,269.04296875,106.4453125,41.015625
1510191292688.1604,44.43359375,-700.1953125,-188.4765625,-73.2421875,-3.90625
1510191292692.0667,33.203125,-631.8359375,-201.171875,-52.734375,-0.48828125
1510191292695.973,41.9921875,-347.16796875,174.31640625,154.78515625,15.13671875
1510191292698.0164,61.5234375,-14.16015625,545.41015625,178.7109375,45.8984375
1510191292701.9226,50.29296875,-251.953125,238.76953125,-11.71875,42.48046875
1510191292705.8289,51.7578125,-589.84375,-148.4375,-67.87109375,54.6875
1510191292709.735,62.5,-387.20703125,109.86328125,114.2578125,39.0625
1510191292713.6414,53.22265625,-3.90625,566.40625,200.68359375,10.7421875
1510191292717.5476,41.015625,-262.6953125,297.36328125,22.4609375,25.390625
1510191292721.4539,51.7578125,-791.50390625,-280.76171875,-95.21484375,-7.32421875
1510191292725.36,64.94140625,-867.1875,-314.453125,33.203125,-19.04296875
1510191292729.2664,55.17578125,-427.734375,193.359375,170.41015625,-6.34765625
1510191292733.1726,41.50390625,-138.18359375,411.62109375,59.08203125,-23.4375
1510191292737.0789,41.015625,-511.23046875,-30.2734375,-84.47265625,3.41796875
1510191292740.985,49.31640625,-618.1640625,-136.71875,2.44140625,70.80078125
1510191292743.085,57.6171875,-146.97265625,395.5078125,185.546875,45.41015625
1510191292746.9912,61.03515625,50.29296875,617.67578125,119.62890625,20.5078125
1510191292750.8975,41.9921875,-446.2890625,92.28515625,-56.15234375,30.76171875
1510191292754.8037,20.5078125,-793.45703125,-268.5546875,-54.19921875,40.0390625
1510191292758.71,32.2265625,-360.83984375,194.3359375,108.3984375,34.1796875
1510191292762.6162,46.38671875,-121.58203125,504.39453125,154.78515625,16.6015625
1510191292766.5225,31.73828125,-553.7109375,44.43359375,-16.11328125,13.18359375
1510191292770.4287,38.57421875,-1000.0,-612.79296875,-109.86328125,-3.41796875
1510191292774.335,49.8046875,-631.34765625,-217.7734375,68.359375,32.2265625
1510191292778.2412,44.43359375,-77.1484375,506.34765625,191.89453125,55.6640625
1510191292782.1475,43.45703125,-452.63671875,140.13671875,19.53125,43.9453125
1510191292786.0537,31.73828125,-890.625,-369.62890625,-106.4453125,29.296875
1510191292788.1147,35.64453125,-712.40234375,-210.9375,30.76171875,-14.16015625
1510191292792.021,61.5234375,-218.26171875,355.95703125,186.03515625,-12.20703125
1510191292795.9272,47.36328125,-292.96875,310.546875,69.3359375,41.9921875
1510191292799.8335,14.16015625,-785.15625,-247.55859375,-95.21484375,46.38671875
1510191292803.7397,34.66796875,-860.83984375,-366.2109375,-38.57421875,7.8125
1510191292807.646,51.7578125,-490.234375,82.03125,139.6484375,13.18359375
1510191292811.5522,33.203125,-509.765625,139.6484375,130.859375,70.3125
1510191292815.4585,26.85546875,-963.8671875,-423.828125,-71.77734375,65.4296875
1510191292819.3647,33.69140625,-969.7265625,-508.30078125,-95.21484375,41.50390625
1510191292823.271,41.015625,-580.078125,-28.3203125,111.81640625,-1.46484375
1510191292827.1772,39.0625,-320.80078125,301.26953125,157.2265625,-24.90234375
1510191292831.0835,21.97265625,-574.21875,9.765625,-26.85546875,8.30078125
1510191292833.1494,11.23046875,-877.44140625,-355.46875,-115.234375,51.26953125
1510191292837.0557,29.78515625,-807.6171875,-227.05078125,39.55078125,34.66796875
1510191292840.962,37.109375,-393.5546875,270.5078125,175.78125,22.94921875
1510191292844.8682,33.203125,-404.296875,224.12109375,26.85546875,27.34375
1510191292848.7744,25.390625,-758.30078125,-214.84375,-114.74609375,83.0078125
1510191292852.6807,35.15625,-881.34765625,-311.5234375,18.06640625,69.82421875
1510191292856.587,47.36328125,-785.15625,-97.16796875,159.1796875,-5.859375
1510191292860.4932,35.15625,-573.73046875,83.0078125,53.22265625,13.18359375
1510191292864.3994,32.2265625,-683.10546875,-130.859375,-95.703125,50.29296875
1510191292868.3057,50.29296875,-910.64453125,-354.4921875,-31.73828125,65.4296875
1510191292872.212,57.12890625,-503.90625,120.60546875,145.01953125,101.07421875
1510191292876.1182,56.640625,-235.83984375,416.50390625,142.08984375,44.43359375
1510191292892.9712,37.109375,-581.0546875,14.16015625,-26.3671875,13.671875
1510191292896.8774,5.37109375,-958.0078125,-435.546875,-80.56640625,52.734375
1510191292900.7837,20.99609375,-702.1484375,-131.8359375,100.5859375,33.203125
1510191292904.69,40.52734375,-236.328125,402.34375,167.96875,3.41796875
1510191292908.5962,31.73828125,-549.8046875,103.515625,-5.37109375,41.015625
1510191292912.5024,41.50390625,-995.1171875,-615.234375,-108.3984375,5.859375
1510191292916.4087,58.10546875,-845.21484375,-510.25390625,40.52734375,-39.55078125
1510191292920.315,61.5234375,-354.4921875,267.578125,187.01171875,-54.6875
1510191292924.2212,44.43359375,-412.59765625,230.95703125,44.921875,-32.2265625
1510191292928.1274,28.80859375,-910.64453125,-461.42578125,-134.27734375,-35.64453125
1510191292932.0337,7.8125,-937.98828125,-516.11328125,-17.08984375,-56.15234375
1510191292935.94,2.9296875,-418.9453125,201.171875,195.3125,-30.76171875
1510191292937.9822,25.87890625,-279.78515625,355.46875,109.375,23.4375
1510191292941.8884,30.76171875,-783.69140625,-202.63671875,-77.63671875,54.19921875
1510191292945.7947,34.1796875,-988.76953125,-456.0546875,-53.7109375,9.27734375
1510191292949.701,47.36328125,-555.6640625,20.01953125,131.34765625,-53.7109375
1510191292953.6072,54.19921875,-298.33984375,337.890625,153.3203125,-20.5078125
1510191292957.5134,23.92578125,-718.75,-127.44140625,-19.53125,41.50390625
1510191292961.4197,4.39453125,-1000.0,-617.1875,-72.75390625,42.96875
1510191292965.326,30.2734375,-691.40625,-183.59375,103.02734375,81.54296875
1510191292969.2322,47.8515625,-297.36328125,377.9296875,186.03515625,91.30859375
1510191292973.1384,39.0625,-750.48828125,-193.359375,-2.44140625,11.23046875
1510191292977.0447,4.39453125,-1000.0,-626.46484375,-127.9296875,-13.671875
1510191292980.951,-3.90625,-790.0390625,-236.81640625,36.62109375,12.6953125
1510191292998.0251,32.71484375,-404.78515625,248.046875,186.5234375,18.5546875
1510191293001.9314,38.0859375,-471.6796875,177.734375,33.203125,16.11328125
1510191293005.8376,20.5078125,-835.9375,-271.484375,-126.953125,10.25390625
1510191293009.744,25.390625,-876.46484375,-339.84375,-18.5546875,-6.34765625
1510191293013.6501,37.109375,-481.93359375,136.71875,176.7578125,7.8125
1510191293017.5564,28.80859375,-444.82421875,231.4453125,118.65234375,38.57421875
1510191293021.4626,14.6484375,-869.140625,-312.98828125,-61.5234375,20.99609375
1510191293025.369,16.6015625,-949.70703125,-459.47265625,-60.05859375,37.59765625
1510191293029.2751,33.203125,-848.6328125,-214.35546875,123.53515625,4.8828125
1510191293033.1814,46.875,-736.328125,-46.875,142.08984375,-14.6484375
1510191293037.0876,26.85546875,-758.30078125,-212.40234375,-56.15234375,7.8125
1510191293040.994,-2.44140625,-1000.0,-606.4453125,-114.74609375,-6.8359375
1510191293028.0466,16.11328125,-852.5390625,-371.09375,81.0546875,-28.80859375
1510191293031.953,45.8984375,-433.59375,165.0390625,184.08203125,-13.18359375
1510191293035.8591,46.38671875,-579.1015625,20.99609375,19.53125,34.66796875
1510191293039.7654,35.64453125,-978.515625,-542.96875,-85.9375,44.921875
1510191293043.6716,38.57421875,-909.1796875,-551.7578125,28.3203125,8.30078125
1510191293047.578,53.7109375,-660.64453125,-75.68359375,171.38671875,17.578125
1510191293051.4841,40.0390625,-749.51171875,-69.82421875,72.265625,50.29296875
1510191293055.3904,9.765625,-966.30859375,-657.71484375,-93.26171875,-13.18359375
1510191293059.2966,11.71875,-996.09375,-916.9921875,-43.9453125,-26.3671875
1510191293063.203,18.5546875,-747.55859375,-279.78515625,133.7890625,52.734375
1510191293067.1091,15.13671875,-707.51953125,-29.296875,89.84375,35.64453125
1510191293071.0154,7.8125,-969.7265625,-633.30078125,-102.5390625,7.8125
1510191293103.1018,8.30078125,-986.328125,-1000.0,-115.234375,44.43359375
1510191293107.008,33.203125,-927.24609375,-674.8046875,73.2421875,61.03515625
1510191293110.9143,44.921875,-902.34375,-251.46484375,121.58203125,34.66796875
1510191293114.8206,34.1796875,-969.23828125,-655.76171875,-63.4765625,-41.50390625
1510191293118.7268,27.34375,-977.5390625,-1000.0,-131.8359375,11.23046875
1510191293122.633,20.01953125,-954.58984375,-797.8515625,46.38671875,91.796875
1510191293126.5393,23.92578125,-942.3828125,-297.36328125,126.46484375,85.9375
1510191293130.4456,20.01953125,-963.8671875,-543.45703125,-20.5078125,36.62109375
1510191293134.3518,12.6953125,-975.5859375,-1000.0,-95.703125,60.05859375
1510191293138.258,31.25,-972.65625,-717.28515625,26.85546875,52.734375
1510191293142.1643,45.8984375,-758.30078125,-91.30859375,200.1953125,26.3671875
1510191293146.0706,31.73828125,-805.17578125,-47.36328125,93.75,52.24609375
1510191293118.0962,7.32421875,-989.2578125,-514.16015625,-90.33203125,57.12890625
1510191293122.0024,-2.9296875,-983.88671875,-642.578125,-30.2734375,8.7890625
1510191293125.9087,30.2734375,-817.3828125,-167.96875,162.109375,-5.37109375
1510191293129.815,57.12890625,-729.4921875,88.8671875,135.25390625,32.71484375
1510191293133.7212,41.50390625,-914.55078125,-359.86328125,-57.6171875,38.0859375
1510191293137.6274,24.90234375,-993.65234375,-736.81640625,-65.91796875,38.57421875
1510191293141.5337,39.55078125,-901.3671875,-359.86328125,132.8125,90.8203125
1510191293145.44,51.26953125,-747.0703125,84.47265625,178.7109375,105.46875
1510191293149.3462,28.3203125,-837.890625,-138.671875,-12.20703125,41.50390625
1510191293153.2524,13.671875,-975.5859375,-548.828125,-116.2109375,5.37109375
1510191293157.1587,24.90234375,-995.1171875,-456.54296875,44.43359375,6.8359375
1510191293161.065,39.55078125,-794.921875,35.15625,184.5703125,35.15625
1510191293163.1274,21.484375,-770.01953125,-10.25390625,43.9453125,15.625
1510191293167.0337,-0.9765625,-980.95703125,-509.765625,-108.88671875,8.30078125
1510191293170.94,26.3671875,-986.81640625,-646.484375,-22.4609375,74.21875
1510191293174.8462,54.6875,-902.34375,-332.03125,167.48046875,51.7578125
1510191293178.7524,28.80859375,-859.375,-67.3828125,76.171875,3.90625
1510191293182.6587,1.46484375,-958.49609375,-489.2578125,-101.07421875,37.59765625
1510191293186.565,23.4375,-997.0703125,-917.48046875,-45.8984375,52.734375
1510191293190.4712,50.29296875,-864.74609375,-522.94921875,136.71875,-0.48828125
1510191293194.3774,52.24609375,-666.015625,133.30078125,149.90234375,30.2734375
1510191293198.2837,37.59765625,-816.40625,-127.9296875,-23.4375,58.10546875
1510191293202.19,15.13671875,-1000.0,-604.4921875,-80.56640625,28.80859375
1510191293206.0962,22.94921875,-798.33984375,-164.55078125,130.859375,79.1015625
1510191293208.1567,41.015625,-407.71484375,449.70703125,238.28125,89.35546875
1510191293212.063,37.109375,-612.79296875,187.5,23.4375,80.078125
1510191293215.9692,26.3671875,-1000.0,-386.71875,-90.8203125,46.875
1510191293219.8755,45.41015625,-846.6796875,-174.8046875,100.5859375,20.99609375
1510191293223.7817,69.3359375,-362.79296875,497.0703125,269.53125,42.96875
1510191293227.688,49.8046875,-582.03125,296.875,107.421875,-10.7421875
1510191293231.5942,31.73828125,-1000.0,-473.6328125,-85.44921875,-7.8125
1510191293235.5005,36.1328125,-887.20703125,-368.1640625,-2.9296875,40.0390625
1510191293239.4067,49.8046875,-318.359375,476.5625,207.03125,67.87109375
1510191293243.313,61.03515625,-216.30859375,587.890625,169.921875,99.609375
1510191293247.2192,58.10546875,-816.40625,-85.9375,-29.78515625,50.29296875
1510191293251.1255,63.96484375,-993.1640625,-341.30859375,-22.4609375,0.0
1510191293268.199,84.9609375,-489.74609375,216.796875,179.6875,34.66796875
1510191293272.1052,83.984375,-250.9765625,520.01953125,195.80078125,36.1328125
1510191293276.0115,57.6171875,-661.1328125,74.70703125,6.34765625,-8.30078125
1510191293279.9177,47.36328125,-964.35546875,-294.43359375,-50.78125,-36.62109375
1510191293283.824,66.40625,-595.21484375,108.88671875,140.13671875,-7.32421875
1510191293287.7302,87.40234375,-409.1796875,429.19921875,253.41796875,16.11328125
1510191293291.6365,61.5234375,-805.6640625,18.5546875,78.125,-33.69140625
1510191293295.5427,41.015625,-868.1640625,-195.80078125,-48.33984375,25.390625
1510191293299.449,61.03515625,-628.41796875,35.64453125,94.7265625,94.23828125
1510191293303.3552,72.265625,-251.46484375,491.69921875,250.9765625,58.10546875
1510191293307.2615,66.89453125,-298.33984375,451.66015625,120.1171875,33.69140625
1510191293311.1677,64.94140625,-753.41796875,-65.4296875,-41.015625,11.23046875
1510191293313.2344,73.73046875,-851.07421875,-178.7109375,30.76171875,-9.27734375
1510191293317.1406,76.66015625,-457.51953125,305.17578125,208.49609375,13.671875
1510191293321.0469,76.171875,-215.33203125,576.66015625,172.36328125,48.33984375
1510191293324.9531,71.2890625,-520.5078125,199.70703125,-8.7890625,51.7578125
1510191293328.8594,66.89453125,-874.0234375,-183.10546875,-18.06640625,45.41015625
1510191293332.7656,69.3359375,-755.859375,12.6953125,163.0859375,3.41796875
1510191293336.6719,71.77734375,-407.71484375,395.01953125,192.87109375,40.0390625
1510191293340.5781,70.80078125,-544.921875,202.1484375,8.7890625,48.33984375
1510191293344.4844,72.75390625,-910.64453125,-288.0859375,-62.5,20.01953125
1510191293348.3906,83.984375,-926.7578125,-323.2421875,86.42578125,9.765625
1510191293352.2969,79.1015625,-464.35546875,276.85546875,178.22265625,-18.06640625
1510191293356.2031,72.265625,-479.00390625,266.11328125,52.24609375,-64.94140625
1510191293358.2634,64.94140625,-940.4296875,-344.23828125,-53.7109375,-47.8515625
1510191293362.1697,62.5,-872.0703125,-299.31640625,57.6171875,-11.23046875
1510191293366.076,82.03125,-348.6328125,353.515625,198.2421875,18.06640625
1510191293369.9822,80.078125,-293.9453125,422.8515625,88.8671875,54.6875
1510191293373.8884,62.01171875,-788.0859375,-235.83984375,-77.1484375,30.76171875
1510191293377.7947,70.3125,-1000.0,-560.05859375,-19.53125,-8.30078125
1510191293381.701,79.58984375,-717.7734375,-85.44921875,168.45703125,-10.7421875
1510191293385.6072,65.91796875,-525.390625,260.7421875,148.92578125,-31.73828125
1510191293389.5134,55.17578125,-808.10546875,-323.73046875,-57.12890625,-16.6015625
1510191293393.4197,51.7578125,-1000.0,-818.84765625,-93.75,12.6953125
1510191293397.326,67.87109375,-714.35546875,-159.66796875,111.81640625,0.48828125
1510191293401.2322,81.0546875,-331.0546875,378.90625,186.03515625,24.4140625
1510191293403.2966,64.453125,-663.57421875,-17.08984375,17.578125,53.7109375
1510191293407.203,52.734375,-1000.0,-533.203125,-81.0546875,26.85546875
1510191293411.1091,79.58984375,-832.51953125,-290.0390625,74.70703125,25.87890625
1510191293415.0154,104.4921875,-452.63671875,230.46875,219.23828125,41.015625
1510191293418.9216,76.66015625,-665.52734375,26.3671875,62.01171875,40.52734375
1510191293422.828,56.15234375,-1000.0,-620.1171875,-100.09765625,19.04296875
1510191293426.7341,62.5,-900.390625,-602.05078125,21.484375,24.4140625
1510191293430.6404,74.70703125,-652.34375,-39.0625,187.01171875,8.30078125
1510191293434.5466,70.3125,-821.77734375,-181.15234375,88.8671875,20.01953125
1510191293438.453,44.921875,-1000.0,-619.140625,-72.265625,-6.8359375
1510191293442.3591,46.38671875,-942.87109375,-573.73046875,-30.2734375,18.06640625
1510191293446.2654,69.82421875,-682.12890625,-118.65234375,155.76171875,71.2890625
1510191293448.645,68.84765625,-444.82421875,172.36328125,145.5078125,70.80078125
1510191293452.5513,46.38671875,-712.890625,-182.6171875,-34.66796875,55.17578125
1510191293456.4575,34.1796875,-1000.0,-614.2578125,-78.125,16.6015625
1510191293460.3638,56.640625,-839.84375,-332.51953125,100.09765625,36.1328125
1510191293464.27,80.078125,-502.44140625,137.6953125,189.94140625,34.66796875
1510191293468.1763,58.59375,-742.67578125,-174.8046875,8.30078125,44.43359375
1510191293472.0825,45.41015625,-990.72265625,-699.21875,-103.515625,60.546875
1510191293475.9888,69.3359375,-996.09375,-676.7578125,37.59765625,45.41015625
1510191293479.895,83.984375,-816.89453125,-240.234375,168.9453125,8.7890625
1510191293483.8013,63.4765625,-609.375,5.859375,47.8515625,39.0625
1510191293487.7075,52.734375,-902.83203125,-465.8203125,-87.40234375,84.9609375
1510191293491.6138,65.91796875,-971.6796875,-656.25,12.6953125,39.55078125
1510191293493.1768,67.3828125,-548.33984375,-37.59765625,190.91796875,13.671875
1510191293497.083,61.5234375,-422.36328125,209.9609375,124.0234375,37.59765625
1510191293500.9893,56.15234375,-832.03125,-364.2578125,-60.05859375,19.04296875
1510191293504.8955,60.05859375,-1000.0,-715.33203125,-35.15625,36.1328125
1510191293508.8018,70.3125,-676.26953125,-193.359375,169.921875,55.17578125
1510191293512.708,76.66015625,-572.265625,62.5,173.33984375,-3.90625
1510191293516.6143,82.03125,-894.04296875,-462.890625,-33.69140625,-18.06640625
1510191293520.5205,86.42578125,-1000.0,-998.046875,-108.3984375,-17.08984375
1510191293524.4268,88.37890625,-791.9921875,-606.93359375,69.82421875,12.20703125
1510191293528.333,96.19140625,-399.90234375,137.6953125,186.03515625,35.15625
1510191293532.2393,77.63671875,-645.99609375,-149.4140625,14.16015625,34.66796875
1510191293536.1455,47.8515625,-1000.0,-697.75390625,-101.5625,69.3359375
1510191293538.2083,67.87109375,-876.46484375,-514.6484375,38.0859375,29.296875
1510191293542.1145,92.7734375,-507.8125,13.18359375,181.15234375,36.62109375
1510191293546.0208,75.68359375,-621.58203125,-66.40625,65.4296875,109.86328125
1510191293549.927,55.17578125,-965.8203125,-563.4765625,-85.9375,71.2890625
1510191293553.8333,70.80078125,-970.21484375,-656.25,0.0,-4.39453125
1510191293557.7395,80.56640625,-662.59765625,-155.76171875,178.22265625,28.80859375
1510191293561.6458,62.01171875,-701.171875,-209.47265625,119.140625,-30.2734375
1510191293565.552,58.59375,-989.2578125,-822.75390625,-87.40234375,-73.73046875
1510191293569.4583,64.94140625,-981.93359375,-774.4140625,-87.40234375,36.62109375
1510191293573.3645,75.1953125,-687.98828125,-257.32421875,120.60546875,11.71875
1510191293577.2708,79.1015625,-406.73828125,80.078125,152.34375,12.6953125
1510191293581.177,63.4765625,-666.9921875,-239.2578125,-22.4609375,57.12890625
1510191293583.2422,52.734375,-1000.0,-689.453125,-81.54296875,6.34765625
1510191293587.1484,66.89453125,-809.5703125,-425.78125,88.8671875,40.0390625
1510191293591.0547,81.0546875,-449.70703125,25.87890625,199.70703125,39.55078125
1510191293594.961,64.453125,-601.5625,-136.23046875,27.83203125,27.34375
1510191293598.8672,50.78125,-945.3125,-696.77734375,-83.984375,10.25390625
1510191293602.7734,70.80078125,-953.125,-762.6953125,62.01171875,20.01953125
1510191293606.6797,97.65625,-820.80078125,-351.5625,182.6171875,87.890625
1510191293610.586,74.21875,-747.55859375,-270.5078125,72.265625,32.71484375
1510191293614.4922,43.45703125,-883.30078125,-596.19140625,-67.87109375,-41.015625
1510191293618.3984,56.15234375,-1000.0,-835.9375,-19.53125,-30.2734375
1510191293622.3047,72.265625,-682.6171875,-340.33203125,154.78515625,9.765625
1510191293626.211,52.734375,-347.16796875,66.40625,146.484375,52.734375
1510191293643.2854,29.78515625,-720.21484375,-371.09375,-54.6875,51.26953125
1510191293647.1917,38.57421875,-1000.0,-833.984375,-96.19140625,59.5703125
1510191293651.098,55.17578125,-725.5859375,-466.30859375,120.1171875,74.70703125
1510191293655.0042,51.7578125,-358.88671875,38.0859375,171.875,34.1796875
1510191293658.9104,36.1328125,-668.45703125,-303.22265625,-25.390625,16.11328125
1510191293662.8167,38.0859375,-1000.0,-907.2265625,-119.140625,44.921875
1510191293666.723,37.109375,-844.23828125,-767.08984375,53.7109375,35.15625
1510191293670.6292,48.828125,-474.12109375,-133.7890625,194.3359375,11.71875
1510191293674.5354,47.36328125,-660.64453125,-279.78515625,26.85546875,31.73828125
1510191293678.4417,21.97265625,-996.58203125,-873.53515625,-109.86328125,17.08984375
1510191293682.348,27.34375,-922.8515625,-841.30859375,25.390625,18.06640625
1510191293686.2542,63.96484375,-546.875,-223.6328125,208.0078125,20.5078125
1510191293688.315,50.78125,-562.5,-179.19921875,100.5859375,-31.25
1510191293692.2212,11.23046875,-941.40625,-782.2265625,-107.91015625,-22.94921875
1510191293696.1274,15.625,-1000.0,-944.3359375,-82.03125,32.2265625
1510191293700.0337,30.76171875,-664.55078125,-370.60546875,93.75,60.546875
1510191293703.94,24.90234375,-543.45703125,-160.64453125,81.54296875,26.3671875
1510191293707.8462,1.46484375,-895.99609375,-710.9375,-124.51171875,41.015625
1510191293711.7524,-16.11328125,-1000.0,-1000.0,-197.265625,20.01953125
1510191293715.6587,-14.16015625,-807.6171875,-704.1015625,7.8125,-24.90234375
1510191293719.565,-13.671875,-621.09375,-313.4765625,115.72265625,14.6484375
1510191293723.4712,-35.64453125,-897.4609375,-725.09765625,-91.796875,33.203125
1510191293727.3774,-66.40625,-1000.0,-1000.0,-241.2109375,18.5546875
1510191293731.2837,-65.91796875,-915.0390625,-853.515625,-72.75390625,34.1796875
1510191293732.867,-56.640625,-715.33203125,-481.93359375,86.42578125,13.671875
1510191293736.7732,-83.49609375,-781.25,-560.546875,-68.84765625,5.37109375
1510191293740.6794,-100.5859375,-980.46875,-939.94140625,-251.46484375,0.48828125
1510191293744.5857,-83.49609375,-958.0078125,-950.68359375,-150.87890625,7.32421875
1510191293748.492,-68.359375,-707.51953125,-552.24609375,62.98828125,56.640625
1510191293752.3982,-55.17578125,-749.51171875,-552.734375,9.27734375,57.6171875
1510191293756.3044,-50.29296875,-978.515625,-922.36328125,-178.22265625,24.4140625
1510191293760.2107,-51.7578125,-964.84375,-989.74609375,-147.4609375,-26.3671875
1510191293764.117,-33.69140625,-977.5390625,-880.859375,51.26953125,7.32421875
1510191293768.0232,-12.20703125,-896.97265625,-737.79296875,45.41015625,14.16015625
1510191293771.9294,-18.06640625,-859.86328125,-817.3828125,-129.8828125,-4.39453125
1510191293775.8357,-12.6953125,-1000.0,-1000.0,-151.3671875,11.23046875
1510191293777.8813,14.16015625,-845.21484375,-832.51953125,37.109375,-27.83203125
1510191293781.7876,30.2734375,-520.01953125,-449.70703125,147.94921875,23.4375
1510191293785.6938,28.3203125,-764.16015625,-706.54296875,-14.16015625,18.06640625
1510191293789.6,11.23046875,-1000.0,-1000.0,-129.8828125,8.30078125
1510191293793.5063,6.34765625,-869.62890625,-870.1171875,27.34375,57.12890625
1510191293797.4126,25.87890625,-656.73828125,-592.7734375,174.31640625,7.32421875
1510191293801.3188,47.8515625,-698.73046875,-652.34375,47.8515625,47.36328125
1510191293805.225,52.734375,-907.2265625,-919.921875,-88.37890625,68.359375
1510191293809.1313,59.08203125,-998.046875,-1000.0,-4.39453125,-2.44140625
1510191293813.0376,77.1484375,-625.9765625,-636.71875,171.875,14.16015625
1510191293816.9438,67.3828125,-394.04296875,-438.96484375,150.390625,18.5546875
1510191293820.85,40.0390625,-773.4375,-818.359375,-25.87890625,24.4140625
1510191293823.4167,37.59765625,-1000.0,-1000.0,-44.43359375,10.25390625
1510191293827.323,62.5,-704.58984375,-768.5546875,131.8359375,-13.18359375
1510191293831.2292,75.1953125,-324.70703125,-447.265625,162.59765625,-1.46484375
1510191293835.1355,66.89453125,-659.66796875,-738.76953125,-13.18359375,59.08203125
1510191293839.0417,63.96484375,-1000.0,-1000.0,-75.1953125,23.4375
1510191293842.948,83.0078125,-854.4921875,-888.671875,112.79296875,-11.23046875
1510191293846.8542,97.65625,-592.28515625,-719.23828125,225.09765625,1.953125
1510191293850.7605,77.63671875,-770.01953125,-861.81640625,44.43359375,-6.34765625
1510191293854.6667,63.4765625,-1000.0,-993.1640625,-104.98046875,17.578125
1510191293858.573,80.078125,-877.44140625,-958.984375,39.0625,18.06640625
1510191293862.4792,96.19140625,-453.61328125,-722.65625,220.21484375,-2.9296875
1510191293866.3855,88.8671875,-468.75,-770.01953125,114.74609375,20.5078125
1510191293867.9424,64.94140625,-883.30078125,-987.79296875,-41.9921875,50.29296875
1510191293871.8486,64.94140625,-941.89453125,-988.28125,24.90234375,39.0625
1510191293875.755,82.51953125,-537.109375,-813.4765625,196.77734375,42.48046875
1510191293879.6611,76.66015625,-371.09375,-771.484375,178.22265625,73.2421875
1510191293883.5674,57.12890625,-684.08203125,-958.984375,3.90625,118.1640625
1510191293887.4736,58.59375,-994.140625,-977.05078125,-21.484375,85.9375
1510191293891.38,78.61328125,-821.77734375,-948.2421875,154.296875,26.85546875
1510191293895.2861,83.0078125,-757.32421875,-951.171875,187.5,-4.39453125
1510191293899.1924,63.96484375,-955.078125,-972.16796875,9.765625,40.0390625
1510191293903.0986,56.15234375,-982.91015625,-966.796875,-63.4765625,39.0625
1510191293907.005,72.75390625,-896.484375,-982.91015625,95.703125,-32.2265625
1510191293910.9111,81.0546875,-471.6796875,-883.30078125,189.94140625,44.921875
1510191293912.9944,68.84765625,-461.9140625,-878.41796875,41.015625,86.42578125
1510191293916.9006,63.4765625,-923.33984375,-980.46875,-69.82421875,29.78515625
1510191293920.807,70.80078125,-964.84375,-978.02734375,40.0390625,65.4296875
1510191293924.7131,83.49609375,-509.765625,-878.90625,200.68359375,95.21484375
1510191293928.6194,78.125,-474.609375,-887.20703125,121.09375,6.8359375
1510191293932.5256,55.17578125,-896.97265625,-980.95703125,-49.31640625,10.7421875
1510191293936.432,51.26953125,-1000.0,-970.703125,-4.8828125,-4.39453125
1510191293940.3381,56.640625,-810.546875,-958.49609375,162.59765625,-25.390625
1510191293944.2444,51.26953125,-504.39453125,-950.68359375,134.27734375,32.2265625
1510191293948.1506,40.52734375,-751.46484375,-970.21484375,-28.80859375,47.8515625
1510191293952.057,37.59765625,-1000.0,-970.703125,-66.89453125,0.0
1510191293955.9631,38.0859375,-878.90625,-969.23828125,126.46484375,6.34765625
1510191293958.0063,31.73828125,-625.48828125,-970.21484375,201.171875,16.11328125
1510191293961.9126,22.94921875,-781.25,-970.21484375,5.37109375,38.57421875
1510191293965.8188,6.8359375,-1000.0,-970.21484375,-111.328125,-22.4609375
1510191293969.725,18.5546875,-936.03515625,-970.21484375,42.48046875,-29.78515625
1510191293973.6313,56.640625,-829.58984375,-970.21484375,180.17578125,21.484375
1510191293977.5376,48.828125,-918.9453125,-970.21484375,24.90234375,38.57421875
1510191293981.4438,24.90234375,-980.95703125,-970.21484375,-126.46484375,81.54296875
1510191293985.35,44.921875,-981.4453125,-970.21484375,-14.6484375,1.953125
