timestamp,TP9,AF7,AF8,TP10,Right AUX

1510174264165.0146,197.75390625,42.96875,-1.46484375,539.0625,79.1015625
1510174264168.921,-17.578125,44.43359375,-2.44140625,-275.87890625,79.1015625
1510174264172.8271,-31.25,41.50390625,-3.41796875,-515.625,62.98828125
1510174264176.7334,138.671875,55.17578125,-14.6484375,99.609375,81.0546875
1510174264180.6396,200.68359375,64.94140625,-18.06640625,501.46484375,99.609375
1510174264184.546,-55.6640625,57.6171875,-2.9296875,-115.234375,77.63671875
1510174264188.4521,-166.9921875,70.3125,0.48828125,-579.58984375,62.01171875
1510174264192.3584,24.4140625,84.47265625,-22.4609375,-125.0,93.75
1510174264196.2646,187.98828125,81.54296875,-24.90234375,477.5390625,151.85546875
1510174264200.171,39.0625,82.03125,-18.5546875,20.99609375,145.5078125
1510174264204.0771,-117.1875,88.37890625,-28.80859375,-604.98046875,97.65625
1510174264207.9834,19.53125,97.16796875,-47.8515625,-238.76953125,119.140625
1510174264210.0322,195.80078125,94.7265625,-49.31640625,437.01171875,149.4140625
1510174264213.9385,92.7734375,78.61328125,-20.99609375,301.7578125,123.53515625
1510174264217.8447,-166.50390625,76.171875,-7.32421875,-534.66796875,63.4765625
1510174264221.751,-127.9296875,83.984375,-17.578125,-628.90625,42.48046875
1510174264225.6572,81.54296875,82.51953125,-20.5078125,-26.3671875,67.87109375
1510174264229.5635,80.56640625,88.37890625,-16.11328125,169.921875,82.51953125
1510174264233.4697,-178.22265625,76.66015625,-12.20703125,-473.14453125,32.2265625
1510174264237.376,-220.703125,68.84765625,-29.78515625,-560.05859375,17.08984375
1510174264241.2822,-44.921875,63.96484375,-36.62109375,118.65234375,53.22265625
1510174264245.1885,51.7578125,46.38671875,-25.390625,455.56640625,68.84765625
1510174264249.0947,-185.05859375,34.66796875,-24.4140625,-275.390625,46.38671875
1510174264253.001,-310.05859375,66.89453125,-23.92578125,-808.10546875,-15.13671875
1510174264270.069,-139.16015625,66.89453125,-20.5078125,-283.69140625,10.25390625
1510174264273.9753,-16.6015625,45.41015625,-21.97265625,301.7578125,46.875
1510174264277.8816,-199.70703125,69.3359375,-22.4609375,30.76171875,67.3828125
1510174264281.7878,-376.46484375,63.96484375,-16.6015625,-509.27734375,38.0859375
1510174264285.694,-238.76953125,47.8515625,-12.6953125,-302.24609375,12.20703125
1510174264289.6003,-27.34375,41.50390625,-15.625,311.03515625,26.85546875
1510174264293.5066,-87.40234375,42.96875,-15.625,317.3828125,42.96875
1510174264297.4128,-304.19921875,39.0625,-6.34765625,-269.04296875,86.9140625
1510174264301.319,-225.09765625,33.69140625,-4.39453125,-105.46875,96.19140625
1510174264305.2253,0.9765625,27.83203125,-1.46484375,526.3671875,49.31640625
1510174264309.1316,26.3671875,32.2265625,-1.46484375,572.75390625,55.6640625
1510174264313.0378,-204.1015625,35.15625,1.46484375,-80.56640625,73.2421875
1510174264330.1316,-225.5859375,36.62109375,1.953125,-281.25,24.90234375
1510174264334.0378,-20.5078125,39.0625,2.44140625,223.14453125,37.59765625
1510174264337.944,61.5234375,38.0859375,7.32421875,630.859375,83.0078125
1510174264341.8503,-150.87890625,34.66796875,11.23046875,102.5390625,84.9609375
1510174264345.7566,-246.09375,30.76171875,11.23046875,-295.8984375,46.875
1510174264349.6628,-90.33203125,25.87890625,6.8359375,87.890625,10.25390625
1510174264353.569,84.47265625,2.44140625,8.7890625,552.24609375,42.48046875
1510174264357.4753,-60.546875,8.30078125,13.18359375,328.61328125,44.921875
1510174264361.3816,-287.59765625,34.66796875,13.671875,-280.76171875,10.25390625
1510174264365.2878,-159.1796875,29.296875,10.25390625,-179.19921875,4.8828125
1510174264369.194,70.80078125,22.94921875,6.34765625,465.33203125,15.13671875
1510174264373.1003,14.16015625,27.34375,19.04296875,496.58203125,25.87890625
1510174264360.1526,-249.51171875,31.73828125,21.97265625,-257.8125,16.11328125
1510174264364.0588,-232.421875,28.80859375,10.7421875,-326.171875,11.71875
1510174264367.965,-21.97265625,20.5078125,14.16015625,284.1796875,39.55078125
1510174264371.8713,15.625,26.85546875,22.94921875,526.3671875,34.1796875
1510174264375.7776,-257.32421875,40.52734375,26.3671875,-83.0078125,7.8125
1510174264379.6838,-329.1015625,40.0390625,27.83203125,-391.11328125,-10.7421875
1510174264383.59,-110.3515625,44.921875,26.3671875,138.671875,42.96875
1510174264387.4963,18.5546875,40.52734375,24.4140625,647.4609375,98.6328125
1510174264391.4026,-198.73046875,34.1796875,26.85546875,167.48046875,69.3359375
1510174264395.3088,-340.33203125,35.64453125,26.3671875,-415.52734375,46.875
1510174264399.215,-147.94921875,28.3203125,18.06640625,-95.21484375,50.29296875
1510174264403.1213,65.4296875,20.99609375,17.08984375,391.11328125,65.91796875
1510174264405.1846,-67.3828125,23.92578125,18.5546875,128.41796875,8.30078125
1510174264409.0908,-295.8984375,14.6484375,20.01953125,-546.38671875,-8.30078125
1510174264412.997,-224.12109375,7.8125,17.08984375,-398.92578125,56.640625
1510174264416.9033,-17.08984375,18.06640625,14.6484375,186.03515625,34.1796875
1510174264420.8096,-29.296875,32.2265625,24.4140625,244.140625,-11.23046875
1510174264424.7158,-270.99609375,21.97265625,26.85546875,-289.0625,-40.0390625
1510174264428.622,-246.09375,12.20703125,18.06640625,-379.8828125,-44.921875
1510174264432.5283,-18.5546875,20.5078125,14.6484375,221.6796875,11.71875
1510174264436.4346,64.94140625,19.04296875,17.08984375,542.96875,-1.953125
1510174264440.3408,-168.9453125,12.20703125,20.5078125,-15.625,11.71875
1510174264444.247,-194.82421875,6.34765625,24.4140625,-331.0546875,-1.46484375
1510174264448.1533,35.15625,13.18359375,25.87890625,118.1640625,1.953125
1510174264450.219,187.5,22.4609375,25.390625,520.5078125,45.8984375
1510174264454.1252,18.06640625,17.08984375,24.4140625,143.5546875,41.50390625
1510174264458.0315,-200.68359375,1.953125,32.2265625,-366.2109375,33.203125
1510174264461.9377,-63.96484375,0.48828125,18.5546875,-140.13671875,44.921875
1510174264465.844,160.15625,14.6484375,3.41796875,443.359375,71.77734375
1510174264469.7502,61.5234375,16.11328125,33.203125,280.2734375,31.25
1510174264473.6565,-220.703125,7.32421875,43.45703125,-386.71875,8.30078125
1510174264477.5627,-218.26171875,-4.8828125,39.0625,-354.00390625,-15.13671875
1510174264481.469,-62.98828125,-10.25390625,31.25,172.36328125,-28.80859375
1510174264485.3752,-103.515625,-7.8125,11.71875,350.09765625,19.04296875
1510174264489.2815,-359.86328125,-7.8125,23.4375,-105.95703125,-33.69140625
1510174264493.1877,-373.53515625,-19.04296875,36.1328125,-139.16015625,-62.5
1510174264495.251,-159.66796875,-19.04296875,28.80859375,349.609375,-56.640625
1510174264499.1572,-44.43359375,-16.11328125,28.80859375,597.65625,-35.15625
1510174264503.0635,-256.34765625,-28.80859375,24.90234375,58.10546875,-18.5546875
1510174264506.9697,-381.8359375,-31.25,26.85546875,-292.48046875,-20.5078125
1510174264510.876,-195.80078125,-40.0390625,28.3203125,168.9453125,14.6484375
1510174264514.7822,-40.0390625,-34.66796875,26.3671875,718.26171875,0.48828125
1510174264518.6885,-229.98046875,-41.015625,30.76171875,422.36328125,5.37109375
1510174264522.5947,-372.55859375,-51.7578125,36.62109375,-131.8359375,-27.34375
1510174264526.501,-151.3671875,-35.15625,45.8984375,79.1015625,-9.765625
1510174264530.4072,67.3828125,-36.1328125,40.52734375,664.0625,47.36328125
1510174264534.3135,-34.66796875,-47.36328125,28.80859375,567.87109375,-30.2734375
1510174264538.2197,-267.08984375,-29.78515625,40.52734375,27.34375,-54.6875
1510174264540.2803,-157.2265625,-17.08984375,36.1328125,58.10546875,-4.8828125
1510174264544.1865,98.14453125,-23.4375,23.92578125,607.421875,-3.90625
1510174264548.0928,157.71484375,-26.85546875,31.73828125,878.90625,-7.8125
1510174264551.999,-66.89453125,-42.96875,31.25,248.046875,-4.8828125
1510174264555.9053,-106.93359375,-55.6640625,26.3671875,45.8984375,26.85546875
1510174264559.8115,138.18359375,-46.38671875,31.25,661.62109375,-10.25390625
1510174264563.7178,258.7890625,-26.3671875,26.3671875,980.46875,-158.69140625
1510174264567.624,60.05859375,-14.16015625,32.71484375,513.671875,-45.41015625
1510174264571.5303,-58.10546875,-8.7890625,44.43359375,245.1171875,65.4296875
1510174264575.4365,129.39453125,-19.53125,32.2265625,495.1171875,48.828125
1510174264579.3428,338.37890625,-24.90234375,26.3671875,825.68359375,84.47265625
1510174264583.249,180.17578125,-4.39453125,28.3203125,619.62890625,146.97265625
1510174264585.3125,-77.1484375,0.48828125,33.203125,225.09765625,128.41796875
1510174264589.2188,38.57421875,-11.23046875,34.66796875,551.7578125,139.16015625
1510174264593.125,301.26953125,-2.44140625,35.64453125,-994.140625,-91.796875
1510174264597.0312,238.28125,12.20703125,37.109375,929.19921875,-242.67578125
1510174264600.9375,-39.55078125,26.3671875,36.1328125,530.2734375,83.0078125
1510174264604.8438,-7.8125,43.45703125,37.109375,425.29296875,207.51953125
1510174264608.75,212.40234375,52.734375,32.71484375,728.515625,180.6640625
1510174264612.6562,268.5546875,56.640625,47.8515625,875.48828125,184.5703125
1510174264616.5625,29.78515625,50.78125,49.31640625,417.96875,176.7578125
1510174264620.4688,-41.9921875,46.38671875,27.34375,145.01953125,190.91796875
1510174264624.375,173.828125,54.19921875,30.2734375,527.83203125,218.26171875
1510174264628.2812,297.36328125,56.15234375,32.71484375,841.796875,209.9609375
1510174264645.355,54.19921875,73.2421875,36.1328125,406.73828125,198.2421875
1510174264649.2612,-121.58203125,84.9609375,38.0859375,-15.13671875,179.19921875
1510174264653.1675,15.625,62.01171875,31.73828125,189.453125,167.48046875
1510174264657.0737,197.265625,46.38671875,29.78515625,609.375,164.0625
1510174264660.98,46.38671875,29.296875,32.71484375,357.421875,161.1328125
1510174264664.8862,-219.23828125,22.4609375,37.59765625,-317.87109375,137.20703125
1510174264668.7925,-107.421875,41.50390625,41.015625,-224.609375,132.8125
1510174264672.6987,115.234375,46.38671875,36.1328125,345.21484375,149.90234375
1510174264676.605,80.56640625,51.26953125,35.64453125,327.1484375,162.109375
1510174264680.5112,-163.57421875,62.5,40.52734375,-365.72265625,138.18359375
1510174264684.4175,-166.50390625,50.29296875,34.1796875,-460.44921875,90.8203125
1510174264688.3237,71.77734375,51.7578125,36.1328125,68.84765625,111.328125
1510174264690.3872,160.64453125,51.7578125,36.1328125,311.03515625,176.7578125
1510174264694.2935,-122.0703125,47.36328125,32.2265625,-268.5546875,178.22265625
1510174264698.1997,-242.1875,41.9921875,31.73828125,-645.99609375,142.08984375
1510174264702.106,-50.29296875,42.96875,28.3203125,-217.7734375,180.17578125
1510174264706.0122,92.28515625,47.36328125,29.296875,228.515625,177.24609375
1510174264709.9185,-124.51171875,53.22265625,34.1796875,-157.2265625,136.71875
1510174264713.8247,-302.24609375,71.2890625,38.0859375,-661.1328125,101.5625
1510174264717.731,-179.19921875,74.70703125,30.2734375,-391.6015625,93.75
1510174264721.6372,6.8359375,76.171875,33.69140625,110.83984375,94.7265625
1510174264725.5435,-83.0078125,74.70703125,38.0859375,-131.8359375,90.33203125
1510174264729.4497,-319.82421875,67.87109375,28.3203125,-717.28515625,59.5703125
1510174264733.356,-235.83984375,72.265625,28.80859375,-595.21484375,29.78515625
1510174264734.9182,-2.44140625,63.4765625,35.15625,-83.49609375,53.22265625
1510174264738.8245,-36.1328125,44.43359375,27.83203125,-54.6875,97.16796875
1510174264742.7307,-326.171875,48.33984375,23.92578125,-707.51953125,70.80078125
1510174264746.637,-348.14453125,52.734375,27.83203125,-838.8671875,-13.671875
1510174264750.5432,-150.87890625,46.38671875,25.390625,-325.1953125,17.578125
1510174264754.4495,-67.3828125,50.78125,21.97265625,-17.578125,82.03125
1510174264758.3557,-304.6875,57.6171875,21.97265625,-522.4609375,44.43359375
1510174264762.262,-403.80859375,66.89453125,28.80859375,-845.21484375,-32.2265625
1510174264766.1682,-227.5390625,60.546875,30.76171875,-453.61328125,-17.578125
1510174264770.0745,-236.328125,52.24609375,27.83203125,-56.15234375,27.34375
1510174264773.9807,-511.71875,58.10546875,28.80859375,-313.4765625,51.7578125
1510174264777.887,-666.9921875,56.15234375,31.25,-818.359375,-33.69140625
1510174264780.1357,-480.95703125,56.640625,28.80859375,-643.5546875,-52.734375
1510174264784.042,-224.12109375,46.38671875,25.87890625,-46.875,31.73828125
1510174264787.9482,-323.2421875,34.66796875,29.296875,-114.74609375,40.0390625
1510174264791.8545,-540.52734375,60.546875,40.52734375,-721.6796875,-51.7578125
1510174264795.7607,-426.7578125,78.125,33.69140625,-672.8515625,-95.703125
1510174264799.667,-186.5234375,70.80078125,22.94921875,-169.921875,-36.62109375
1510174264803.5732,-107.91015625,70.3125,27.83203125,13.671875,20.01953125
1510174264807.4795,-343.26171875,61.5234375,32.71484375,-568.359375,-50.29296875
1510174264811.3857,-376.46484375,65.91796875,29.78515625,-811.5234375,-123.53515625
1510174264815.292,-156.73828125,69.82421875,19.04296875,-299.31640625,-60.05859375
1510174264819.1982,-42.96875,69.3359375,19.04296875,156.25,-43.9453125
1510174264823.1045,-258.30078125,66.89453125,22.94921875,-279.296875,-73.73046875
1510174264825.167,-378.90625,47.8515625,21.484375,-724.609375,-113.76953125
1510174264829.0732,-187.5,47.36328125,21.484375,-347.16796875,-145.01953125
1510174264832.9795,8.7890625,46.875,18.06640625,148.4375,-102.05078125
1510174264836.8857,-142.578125,45.8984375,20.99609375,-148.92578125,-63.96484375
1510174264840.792,-340.33203125,54.19921875,23.4375,-691.89453125,-121.09375
1510174264844.6982,-193.359375,54.19921875,22.4609375,-488.76953125,-149.90234375
1510174264848.6045,-2.9296875,62.01171875,20.5078125,102.05078125,-105.95703125
1510174264852.5107,-65.91796875,64.94140625,21.97265625,95.703125,-113.76953125
1510174264856.417,-298.33984375,59.5703125,23.4375,-558.59375,-158.69140625
1510174264860.3232,-249.0234375,49.8046875,17.578125,-554.6875,-120.60546875
1510174264864.2295,5.37109375,51.26953125,18.06640625,-15.625,-103.02734375
1510174264868.1357,63.96484375,48.33984375,25.390625,185.546875,-97.65625
1510174264870.1987,-178.22265625,33.69140625,25.390625,-346.19140625,-91.30859375
1510174264874.105,-219.23828125,26.85546875,20.99609375,-548.33984375,-99.12109375
1510174264878.0112,8.7890625,24.4140625,19.04296875,-50.78125,-78.61328125
1510174264881.9175,157.2265625,22.94921875,20.01953125,337.890625,-60.546875
1510174264885.8237,-48.33984375,16.6015625,27.83203125,-67.87109375,-41.9921875
1510174264889.73,-210.9375,22.94921875,30.76171875,-537.109375,-41.50390625
1510174264893.6362,-39.0625,29.78515625,22.94921875,-242.67578125,-51.7578125
1510174264897.5425,156.25,28.80859375,21.484375,222.65625,-59.08203125
1510174264901.4487,42.48046875,22.94921875,25.390625,11.23046875,-49.31640625
1510174264905.355,-162.59765625,14.6484375,27.34375,-459.47265625,-57.6171875
1510174264909.2612,-56.640625,23.4375,21.97265625,-330.56640625,-83.49609375
1510174264913.1675,183.59375,22.4609375,19.53125,193.84765625,-68.84765625
1510174264915.2334,153.3203125,14.6484375,24.4140625,231.4453125,-62.5
1510174264919.1396,-122.55859375,10.25390625,26.3671875,-400.390625,-56.640625
1510174264923.046,-99.609375,18.06640625,20.99609375,-493.1640625,-61.5234375
1510174264926.9521,143.06640625,32.2265625,19.04296875,55.6640625,-23.4375
1510174264930.8584,222.65625,30.76171875,22.94921875,329.1015625,0.48828125
1510174264934.7646,-25.87890625,27.83203125,27.34375,-205.56640625,-40.0390625
1510174264938.671,-97.65625,31.73828125,27.34375,-542.48046875,-100.5859375
1510174264942.5771,105.46875,23.4375,20.5078125,-136.71875,-96.19140625
1510174264946.4834,228.02734375,12.20703125,14.16015625,361.328125,-42.48046875
1510174264950.3896,40.52734375,20.99609375,17.08984375,-4.8828125,-69.82421875
1510174264954.296,-127.44140625,20.99609375,19.53125,-546.38671875,-86.42578125
1510174264958.2021,20.5078125,12.6953125,16.11328125,-265.625,-61.5234375
1510174264960.2627,236.328125,10.25390625,14.6484375,264.16015625,-43.45703125
1510174264964.169,119.140625,12.6953125,21.484375,95.703125,-25.390625
1510174264968.0752,-123.046875,8.30078125,23.92578125,-487.3046875,-45.41015625
1510174264971.9814,-14.6484375,7.8125,21.97265625,-390.625,-53.7109375
1510174264975.8877,234.375,17.08984375,21.484375,167.48046875,-41.015625
1510174264979.794,221.19140625,20.01953125,20.99609375,247.55859375,-14.16015625
1510174264983.7002,-45.41015625,13.671875,24.4140625,-400.390625,-63.96484375
1510174264987.6064,-59.5703125,17.578125,22.4609375,-500.9765625,-109.375
1510174264991.5127,174.8046875,22.94921875,12.20703125,61.03515625,-77.1484375
1510174264995.419,272.94921875,22.94921875,10.7421875,332.03125,-49.8046875
1510174264999.3252,23.92578125,14.16015625,19.53125,-226.07421875,-51.26953125
1510174265003.2314,-70.80078125,0.9765625,16.11328125,-620.1171875,-89.35546875
1510174265020.3052,116.69921875,12.20703125,9.27734375,-217.7734375,-87.40234375
1510174265024.2114,280.76171875,18.06640625,5.859375,246.58203125,-49.31640625
1510174265028.1177,111.81640625,16.11328125,9.27734375,-56.15234375,-65.4296875
1510174265032.024,-90.33203125,25.390625,13.671875,-497.0703125,-62.98828125
1510174265035.9302,47.8515625,25.390625,17.08984375,-181.15234375,-5.37109375
1510174265039.8364,255.859375,16.6015625,14.16015625,301.26953125,-29.78515625
1510174265043.7427,162.59765625,12.20703125,14.16015625,102.5390625,-74.70703125
1510174265047.649,-88.37890625,10.7421875,21.484375,-481.93359375,-59.5703125
1510174265051.5552,-15.13671875,19.04296875,20.5078125,-399.90234375,-59.08203125
1510174265055.4614,231.4453125,25.87890625,9.765625,160.15625,-73.73046875
1510174265059.3677,227.05078125,29.296875,10.7421875,339.84375,-46.38671875
1510174265063.274,-33.69140625,36.62109375,21.97265625,-189.94140625,-78.61328125
1510174265065.3374,-53.7109375,31.25,20.01953125,-378.41796875,-149.4140625
1510174265069.2437,145.5078125,27.83203125,16.11328125,113.76953125,-106.4453125
1510174265073.15,248.53515625,30.2734375,17.08984375,472.16796875,-72.265625
1510174265077.0562,8.30078125,35.15625,24.4140625,-0.48828125,-82.03125
1510174265080.9624,-127.44140625,39.55078125,20.5078125,-384.27734375,-97.16796875
1510174265084.8687,53.22265625,32.2265625,15.13671875,1.953125,-93.26171875
1510174265088.775,223.6328125,30.2734375,22.94921875,502.9296875,-93.75
1510174265092.6812,54.19921875,18.06640625,19.04296875,223.14453125,-107.421875
1510174265096.5874,-163.0859375,3.90625,23.4375,-295.41015625,-94.7265625
1510174265100.4937,-42.96875,13.671875,24.90234375,-119.62890625,-125.48828125
1510174265104.4,182.6171875,22.4609375,17.578125,453.61328125,-121.58203125
1510174265108.3062,124.51171875,21.484375,20.99609375,479.98046875,-110.83984375
1510174265110.3699,-140.625,18.5546875,24.4140625,-145.01953125,-109.375
1510174265114.2761,-100.09765625,17.578125,20.99609375,-159.1796875,-50.78125
1510174265118.1824,120.1171875,25.87890625,16.11328125,396.484375,-15.13671875
1510174265122.0886,159.66796875,32.2265625,19.53125,573.2421875,-31.25
1510174265125.9949,-95.21484375,30.76171875,28.80859375,-38.0859375,-42.48046875
1510174265129.9011,-149.90234375,37.109375,28.3203125,-291.50390625,-92.28515625
1510174265133.8074,56.15234375,28.3203125,20.5078125,175.78125,-83.49609375
1510174265137.7136,167.96875,17.578125,21.97265625,556.15234375,-45.41015625
1510174265141.6199,-38.57421875,15.13671875,32.2265625,79.58984375,-76.66015625
1510174265145.5261,-193.84765625,4.39453125,25.390625,-405.2734375,-72.265625
1510174265149.4324,-24.90234375,9.765625,20.99609375,-13.671875,-2.9296875
1510174265153.3386,182.6171875,13.671875,21.484375,485.83984375,-5.859375
1510174265154.9011,41.50390625,9.27734375,23.92578125,214.35546875,-20.99609375
1510174265158.8074,-187.5,10.25390625,29.78515625,-339.84375,-17.08984375
1510174265162.7136,-70.3125,8.7890625,24.4140625,-175.29296875,-34.66796875
1510174265166.6199,159.1796875,9.765625,25.390625,365.234375,-17.578125
1510174265170.5261,106.4453125,13.671875,27.34375,357.91015625,-11.23046875
1510174265174.4324,-155.2734375,19.04296875,25.87890625,-244.140625,-42.48046875
1510174265178.3386,-111.81640625,29.78515625,25.390625,-282.2265625,-61.03515625
1510174265182.2449,128.41796875,24.4140625,22.4609375,258.7890625,-32.71484375
1510174265186.1511,197.265625,10.25390625,22.94921875,497.55859375,-17.578125
1510174265190.0574,-43.45703125,8.7890625,23.4375,-49.8046875,-36.62109375
1510174265193.9636,-114.2578125,14.6484375,23.4375,-325.1953125,-42.96875
1510174265197.8699,90.8203125,9.27734375,25.87890625,77.1484375,-64.94140625
1510174265199.9536,234.86328125,-1.953125,22.4609375,449.70703125,-45.41015625
1510174265203.8599,36.62109375,4.39453125,25.87890625,87.890625,-25.390625
1510174265207.766,-141.11328125,7.8125,27.34375,-382.32421875,-62.5
1510174265211.6724,3.41796875,3.90625,20.99609375,-141.6015625,-66.89453125
1510174265215.5786,205.56640625,10.7421875,18.06640625,366.69921875,-60.05859375
1510174265219.4849,94.23828125,6.8359375,20.01953125,204.1015625,-47.36328125
1510174265223.391,-151.3671875,0.0,19.04296875,-356.4453125,-25.390625
1510174265227.2974,-64.453125,0.48828125,19.53125,-265.13671875,-18.5546875
1510174265231.2036,163.0859375,7.32421875,18.06640625,256.34765625,-40.52734375
1510174265235.1099,144.04296875,12.6953125,16.6015625,390.625,-28.80859375
1510174265239.016,-107.91015625,14.6484375,23.4375,-202.1484375,-89.84375
1510174265242.9224,-103.02734375,25.87890625,23.92578125,-343.26171875,-112.79296875
1510174265244.9644,107.421875,27.34375,19.53125,167.48046875,-77.1484375
1510174265248.8706,187.5,33.203125,18.06640625,472.16796875,-80.56640625
1510174265252.7769,-41.015625,35.15625,25.390625,-44.43359375,-106.4453125
1510174265256.683,-140.13671875,25.87890625,21.484375,-414.0625,-97.65625
1510174265260.5894,41.015625,27.83203125,10.25390625,3.41796875,-48.33984375
1510174265264.4956,184.08203125,34.1796875,11.23046875,446.77734375,-67.87109375
1510174265268.4019,2.9296875,24.4140625,18.5546875,92.7734375,-94.7265625
1510174265272.308,-187.01171875,11.71875,22.94921875,-421.875,-130.859375
1510174265276.2144,-45.8984375,8.7890625,20.99609375,-144.53125,-100.09765625
1510174265280.1206,166.9921875,11.23046875,17.08984375,443.84765625,-43.45703125
1510174265284.0269,65.4296875,7.32421875,23.92578125,288.0859375,-83.49609375
1510174265287.933,-183.10546875,12.6953125,28.3203125,-308.59375,-106.93359375
1510174265290.0166,-116.69921875,19.53125,20.99609375,-211.42578125,-121.58203125
1510174265293.9229,110.83984375,12.20703125,19.53125,330.078125,-100.5859375
1510174265297.829,126.953125,16.11328125,21.97265625,417.48046875,-78.61328125
1510174265301.7354,-114.74609375,23.92578125,25.390625,-195.80078125,-95.703125
1510174265305.6416,-130.859375,20.99609375,27.34375,-328.125,-78.125
1510174265309.5479,73.73046875,6.34765625,23.4375,183.59375,0.48828125
1510174265313.454,170.41015625,0.0,19.04296875,474.12109375,-7.32421875
1510174265317.3604,-46.875,7.8125,17.578125,-29.78515625,-41.50390625
1510174265321.2666,-165.0390625,1.953125,16.11328125,-381.34765625,-12.6953125
1510174265325.1729,9.765625,-1.46484375,17.578125,-13.18359375,-18.06640625
1510174265329.079,188.4765625,4.39453125,16.11328125,447.75390625,-21.97265625
1510174265332.9854,15.625,-11.71875,18.06640625,163.57421875,-14.16015625
1510174265335.0508,-202.63671875,-12.20703125,23.4375,-327.1484375,-19.04296875
1510174265338.957,-65.91796875,2.44140625,19.04296875,-125.0,-42.96875
1510174265342.8633,143.5546875,3.90625,15.13671875,392.578125,-22.94921875
1510174265346.7695,68.359375,1.46484375,17.578125,350.09765625,-34.66796875
1510174265350.6758,-173.33984375,2.9296875,18.06640625,-255.859375,-22.4609375
1510174265354.582,-122.55859375,9.27734375,16.11328125,-276.3671875,1.46484375
1510174265358.4883,89.35546875,7.32421875,11.23046875,221.6796875,-29.296875
1510174265362.3945,117.67578125,11.23046875,5.859375,400.390625,-55.17578125
1510174265366.3008,-118.65234375,18.06640625,9.27734375,-102.05078125,-14.16015625
1510174265370.207,-155.2734375,15.625,10.7421875,-340.33203125,-6.34765625
1510174265374.1133,51.7578125,11.71875,8.30078125,107.421875,11.71875
1510174265378.0195,170.41015625,8.30078125,12.20703125,502.44140625,28.3203125
1510174265395.0916,-38.0859375,6.34765625,16.11328125,29.296875,9.765625
1510174265398.9978,-175.29296875,14.6484375,19.53125,-399.90234375,-7.8125
1510174265402.904,5.859375,17.578125,17.578125,-55.17578125,-5.37109375
1510174265406.8103,175.78125,13.18359375,11.71875,460.9375,40.0390625
1510174265410.7166,11.71875,20.01953125,17.08984375,229.98046875,23.4375
1510174265414.6228,-208.49609375,26.85546875,26.3671875,-374.0234375,-54.19921875
1510174265418.529,-95.21484375,26.3671875,21.484375,-250.0,-49.31640625
1510174265422.4353,126.953125,25.390625,15.13671875,342.7734375,8.7890625
1510174265426.3416,89.35546875,36.62109375,22.94921875,368.65234375,14.6484375
1510174265430.2478,-158.203125,48.828125,26.3671875,-252.9296875,-3.41796875
1510174265434.154,-129.8828125,44.921875,20.01953125,-299.31640625,-63.96484375
1510174265438.0603,77.63671875,37.109375,15.625,252.44140625,-15.625
1510174265440.123,131.8359375,40.0390625,19.53125,485.83984375,30.76171875
1510174265444.0293,-115.234375,44.43359375,24.90234375,-127.9296875,6.8359375
1510174265447.9355,-197.75390625,42.48046875,22.94921875,-429.19921875,-38.57421875
1510174265451.8418,5.37109375,43.45703125,13.671875,45.41015625,-59.08203125
1510174265455.748,134.27734375,41.50390625,9.765625,483.3984375,-25.390625
1510174265459.6543,-71.77734375,38.0859375,20.5078125,77.63671875,-57.6171875
1510174265463.5605,-241.69921875,36.62109375,20.01953125,-394.53125,-57.6171875
1510174265467.4668,-84.9609375,43.45703125,15.625,-78.61328125,-32.2265625
1510174265471.373,108.88671875,43.45703125,18.5546875,406.73828125,-69.3359375
1510174265475.2793,-17.578125,39.0625,25.390625,156.73828125,-76.171875
1510174265479.1855,-227.05078125,49.8046875,25.87890625,-362.3046875,-28.80859375
1510174265483.0918,-108.3984375,45.8984375,24.90234375,-145.01953125,-32.71484375
1510174265485.1353,119.140625,35.64453125,24.4140625,407.2265625,-39.55078125
1510174265489.0415,100.5859375,40.52734375,25.87890625,493.1640625,14.6484375
1510174265492.9478,-123.53515625,39.0625,29.296875,-70.3125,25.390625
1510174265496.854,-101.07421875,35.64453125,22.94921875,-144.04296875,32.2265625
1510174265500.7603,87.40234375,42.96875,16.6015625,333.984375,38.57421875
1510174265504.6665,172.36328125,44.921875,19.53125,564.94140625,44.43359375
1510174265508.5728,-43.9453125,43.45703125,25.87890625,111.328125,40.0390625
1510174265512.479,-160.64453125,39.0625,24.90234375,-186.03515625,32.71484375
1510174265516.3853,0.0,35.64453125,24.4140625,169.921875,46.38671875
1510174265520.2915,158.69140625,39.0625,25.390625,600.09765625,16.6015625
1510174265524.1978,12.6953125,33.69140625,28.80859375,320.80078125,9.765625
1510174265528.104,-154.296875,32.71484375,31.25,-125.48828125,17.578125
1510174265530.1675,-31.73828125,45.41015625,31.25,129.39453125,-21.484375
1510174265534.0737,155.76171875,42.96875,24.4140625,636.23046875,-12.6953125
1510174265537.98,75.68359375,32.71484375,25.390625,499.0234375,0.48828125
1510174265541.8862,-171.875,28.80859375,26.85546875,-146.484375,15.13671875
1510174265545.7925,-105.46875,32.71484375,19.53125,-181.15234375,55.6640625
1510174265549.6987,122.55859375,33.203125,15.625,313.4765625,48.828125
1510174265553.605,132.32421875,32.71484375,18.06640625,429.6875,61.03515625
1510174265557.5112,-120.1171875,34.1796875,26.3671875,-150.87890625,64.94140625
1510174265561.4175,-134.27734375,34.66796875,27.34375,-296.38671875,34.1796875
1510174265565.3237,52.24609375,39.55078125,19.04296875,226.5625,39.0625
1510174265569.23,114.74609375,36.1328125,14.6484375,525.390625,68.84765625
1510174265573.1362,-68.84765625,28.3203125,18.5546875,-6.34765625,86.42578125
1510174265575.2068,-118.1640625,29.296875,21.97265625,-388.671875,85.44921875
1510174265579.113,73.73046875,21.484375,13.18359375,-33.203125,57.6171875
1510174265583.0193,213.37890625,16.6015625,9.27734375,377.44140625,41.9921875
1510174265586.9255,35.15625,20.99609375,13.671875,7.8125,61.5234375
1510174265590.8318,-164.55078125,15.625,14.16015625,-497.55859375,32.2265625
1510174265594.738,-9.765625,19.53125,19.53125,-249.0234375,-32.2265625
1510174265598.6443,207.03125,29.78515625,20.5078125,286.62109375,-21.484375
1510174265602.5505,68.359375,34.66796875,22.94921875,159.1796875,-6.34765625
1510174265606.4568,-186.03515625,35.15625,26.3671875,-489.74609375,-31.73828125
1510174265610.363,-114.2578125,29.78515625,23.4375,-439.94140625,-16.11328125
1510174265614.2693,116.69921875,29.78515625,19.53125,81.0546875,-20.01953125
1510174265618.1755,186.03515625,28.3203125,17.578125,215.8203125,-18.5546875
1510174265620.2515,-62.98828125,17.08984375,21.97265625,-335.44921875,-27.83203125
1510174265624.1577,-94.23828125,19.53125,22.94921875,-515.625,-98.6328125
1510174265628.064,137.20703125,21.97265625,16.6015625,-41.50390625,-68.359375
1510174265631.9702,250.48828125,18.5546875,17.578125,334.47265625,5.859375
1510174265635.8765,47.36328125,29.296875,23.4375,-83.0078125,-22.94921875
1510174265639.7827,-106.4453125,41.015625,18.06640625,-509.27734375,-46.38671875
1510174265643.689,53.22265625,31.73828125,16.6015625,-176.26953125,-45.41015625
1510174265647.5952,167.96875,17.578125,15.13671875,250.9765625,-92.7734375
1510174265651.5015,-73.2421875,20.5078125,17.578125,-12.20703125,-79.1015625
1510174265655.4077,-256.8359375,24.4140625,19.53125,-501.46484375,-91.30859375
1510174265659.314,-115.234375,19.04296875,17.578125,-331.0546875,-82.51953125
1510174265663.2202,87.40234375,19.53125,17.578125,231.93359375,-64.453125
1510174265665.2634,12.20703125,18.06640625,20.99609375,266.6015625,-53.22265625
1510174265669.1697,-278.80859375,20.99609375,24.90234375,-307.6171875,-56.640625
1510174265673.076,-283.203125,32.2265625,19.04296875,-368.65234375,-74.70703125
1510174265676.9822,-113.28125,40.0390625,16.11328125,149.4140625,-38.57421875
1510174265680.8884,-120.1171875,43.45703125,16.11328125,380.859375,-1.46484375
1510174265684.7947,-343.75,50.78125,20.5078125,-168.9453125,21.97265625
1510174265688.701,-359.86328125,51.7578125,26.85546875,-398.92578125,18.06640625
1510174265692.6072,-189.453125,50.78125,23.4375,94.7265625,26.85546875
1510174265696.5134,-93.26171875,48.828125,16.11328125,571.77734375,91.796875
1510174265700.4197,-327.1484375,46.875,17.08984375,229.98046875,83.49609375
1510174265704.326,-490.72265625,48.828125,18.06640625,-213.8671875,68.359375
1510174265708.2322,-327.63671875,38.57421875,18.5546875,115.72265625,102.05078125
1510174265710.2947,-96.6796875,33.69140625,16.6015625,658.69140625,116.69921875
1510174265714.201,-177.24609375,39.55078125,20.5078125,475.09765625,116.69921875
1510174265718.1072,-375.9765625,40.52734375,24.4140625,-96.6796875,142.578125
1510174265722.0134,-278.80859375,38.57421875,17.578125,-6.34765625,168.9453125
1510174265725.9197,-131.8359375,32.2265625,13.671875,542.96875,171.38671875
1510174265729.826,-162.109375,41.015625,16.6015625,572.75390625,167.96875
1510174265733.7322,-355.95703125,52.734375,14.6484375,-109.375,137.20703125
1510174265737.6384,-289.55078125,54.6875,13.18359375,-208.49609375,111.328125
1510174265741.5447,-36.1328125,55.6640625,16.11328125,301.7578125,142.578125
1510174265745.451,49.31640625,36.62109375,12.6953125,473.14453125,143.5546875
1510174265749.3572,-145.01953125,17.08984375,19.04296875,-109.375,119.140625
1510174265753.2634,-167.96875,16.11328125,24.90234375,-478.02734375,75.68359375
1510174265770.338,48.33984375,13.671875,20.01953125,-154.296875,68.359375
1510174265774.2441,221.6796875,12.6953125,18.5546875,151.85546875,74.70703125
1510174265778.1504,62.5,9.765625,22.4609375,-313.4765625,24.90234375
1510174265782.0566,-79.58984375,13.671875,26.85546875,-850.5859375,-65.4296875
1510174265785.963,92.7734375,16.6015625,25.87890625,-653.80859375,-115.72265625
1510174265789.8691,276.85546875,8.7890625,19.53125,-181.640625,-81.0546875
1510174265793.7754,181.15234375,17.578125,22.94921875,-354.00390625,-53.7109375
1510174265797.6816,-32.71484375,31.25,30.76171875,-947.265625,-447.265625
1510174265801.588,24.90234375,33.203125,27.83203125,-839.35546875,-594.7265625
1510174265805.4941,218.26171875,21.484375,22.94921875,-249.0234375,-229.4921875
1510174265809.4004,178.7109375,18.5546875,20.5078125,-108.88671875,-171.875
1510174265813.3066,-111.328125,22.94921875,25.87890625,-573.73046875,-168.9453125
1510174265815.3694,-203.125,19.53125,27.83203125,-660.64453125,-203.61328125
1510174265819.2756,-64.453125,20.5078125,19.53125,-145.5078125,-174.31640625
1510174265823.182,12.6953125,23.4375,20.5078125,261.71875,-87.40234375
1510174265827.0881,-221.6796875,19.53125,27.83203125,-57.12890625,-87.40234375
1510174265830.9944,-342.28515625,15.13671875,29.296875,-267.08984375,-119.140625
1510174265834.9006,-159.66796875,16.11328125,24.90234375,218.75,-83.49609375
1510174265838.807,-21.484375,16.6015625,18.5546875,728.02734375,-58.10546875
1510174265842.7131,-190.4296875,21.484375,20.5078125,473.14453125,-44.43359375
1510174265846.6194,-353.515625,17.578125,22.4609375,16.11328125,-18.06640625
1510174265850.5256,-203.125,4.39453125,18.5546875,166.9921875,-8.30078125
1510174265854.432,32.71484375,7.32421875,17.578125,711.9140625,39.55078125
1510174265858.3381,-37.59765625,11.23046875,16.11328125,720.21484375,57.12890625
1510174265860.4014,-238.76953125,10.25390625,16.11328125,131.34765625,82.51953125
1510174265864.3076,-137.6953125,12.6953125,16.6015625,241.2109375,172.8515625
1510174265868.2139,104.4921875,11.71875,16.11328125,815.91796875,65.4296875
1510174265872.12,129.8828125,11.23046875,16.11328125,958.0078125,-22.94921875
1510174265876.0264,-94.7265625,7.32421875,18.06640625,455.078125,186.03515625
1510174265879.9326,-332.03125,4.8828125,13.671875,150.87890625,264.6484375
1510174265883.8389,-367.1875,5.859375,7.8125,419.43359375,248.046875
1510174265887.745,-24.90234375,4.39453125,12.20703125,729.98046875,244.62890625
1510174265891.6514,80.078125,5.37109375,18.06640625,237.3046875,215.8203125
1510174265895.5576,0.9765625,10.25390625,18.5546875,-310.546875,184.08203125
1510174265899.4639,104.4921875,9.27734375,15.625,-72.265625,198.2421875
1510174265903.37,345.703125,11.71875,12.6953125,325.1953125,181.640625
1510174265904.953,340.33203125,24.4140625,16.11328125,6.8359375,138.671875
1510174265908.8591,144.53125,27.34375,14.6484375,-541.015625,129.39453125
1510174265912.7654,205.078125,24.90234375,10.7421875,-333.0078125,125.0
1510174265916.6716,433.59375,27.83203125,10.25390625,164.55078125,80.078125
1510174265920.578,403.80859375,31.73828125,10.7421875,30.2734375,21.97265625
1510174265924.4841,120.60546875,37.59765625,18.06640625,-676.26953125,-71.2890625
1510174265928.3904,130.37109375,37.109375,14.6484375,-802.24609375,-101.07421875
1510174265932.2966,366.69921875,37.109375,11.23046875,-332.51953125,-74.70703125
1510174265936.203,392.578125,36.62109375,15.625,-181.15234375,-76.66015625
1510174265940.1091,87.40234375,37.59765625,20.99609375,-713.8671875,-154.296875
1510174265944.0154,6.34765625,50.78125,24.90234375,-853.02734375,-207.51953125
1510174265947.9216,172.8515625,49.31640625,23.4375,-336.42578125,-153.3203125
1510174265949.967,251.953125,53.7109375,23.4375,90.33203125,-120.1171875
1510174265953.8733,23.92578125,58.10546875,23.92578125,-289.0625,-132.32421875
1510174265957.7795,-154.78515625,49.8046875,25.390625,-685.546875,-164.55078125
1510174265961.6858,-3.41796875,41.9921875,25.87890625,-336.42578125,-209.47265625
1510174265965.592,150.390625,44.43359375,21.484375,259.765625,-178.22265625
1510174265969.4983,-18.06640625,43.9453125,25.390625,209.47265625,-134.27734375
1510174265973.4045,-265.13671875,42.48046875,28.80859375,-303.7109375,-162.59765625
1510174265977.3108,-224.609375,43.9453125,26.85546875,-222.65625,-153.3203125
1510174265981.217,-91.796875,32.2265625,23.92578125,264.6484375,-107.421875
1510174265985.1233,-167.96875,24.90234375,23.4375,368.65234375,-91.30859375
1510174265989.0295,-432.6171875,26.3671875,28.3203125,-73.73046875,-113.28125
1510174265992.9358,-415.52734375,20.5078125,26.85546875,-95.21484375,-105.46875
1510174265994.9995,-204.1015625,15.625,20.5078125,336.42578125,-56.640625
1510174265998.9058,-151.85546875,15.625,20.5078125,545.41015625,-17.578125
1510174266002.812,-364.2578125,9.765625,22.4609375,119.140625,-56.15234375
1510174266006.7183,-392.08984375,6.34765625,19.04296875,-111.81640625,-64.94140625
1510174266010.6245,-151.3671875,5.37109375,18.06640625,372.0703125,-2.44140625
1510174266014.5308,32.71484375,5.859375,18.5546875,820.3125,23.4375
1510174266018.437,-94.23828125,11.23046875,23.4375,480.95703125,21.97265625
1510174266022.3433,-203.61328125,13.18359375,24.90234375,55.6640625,47.36328125
1510174266026.2495,-35.15625,13.671875,20.5078125,375.48828125,95.703125
1510174266030.1558,166.50390625,15.13671875,21.97265625,902.34375,62.5
1510174266034.062,59.08203125,21.484375,24.90234375,554.19921875,71.2890625
1510174266037.9683,-219.7265625,15.625,24.4140625,-108.3984375,121.09375
1510174266040.0486,-178.22265625,4.8828125,16.6015625,46.38671875,109.375
1510174266043.9548,69.82421875,13.18359375,11.71875,564.94140625,104.4921875
1510174266047.861,54.6875,16.6015625,25.390625,570.80078125,122.0703125
1510174266051.7673,-259.27734375,3.41796875,41.015625,-133.30078125,133.30078125
1510174266055.6736,-294.921875,-3.41796875,36.1328125,-314.94140625,107.91015625
1510174266059.5798,-82.03125,-1.46484375,30.76171875,179.6875,158.69140625
1510174266063.486,-21.484375,0.48828125,36.62109375,393.06640625,170.41015625
1510174266067.3923,-298.33984375,2.9296875,42.48046875,-197.265625,148.92578125
1510174266071.2986,-439.94140625,2.44140625,49.31640625,-465.33203125,144.53125
1510174266075.2048,-298.33984375,6.8359375,52.24609375,-96.19140625,110.83984375
1510174266079.111,-170.8984375,6.34765625,42.96875,204.1015625,149.90234375
1510174266083.0173,-372.0703125,3.41796875,47.8515625,-130.37109375,157.71484375
1510174266085.061,-612.3046875,8.7890625,60.05859375,-588.8671875,121.58203125
1510174266088.9673,-520.99609375,16.11328125,58.59375,-382.8125,129.39453125
1510174266092.8735,-399.4140625,13.18359375,59.08203125,87.40234375,208.984375
1510174266096.7798,-543.9453125,2.44140625,66.40625,-2.44140625,264.6484375
1510174266100.686,-738.28125,7.32421875,59.08203125,-573.2421875,199.70703125
1510174266104.5923,-645.01953125,2.44140625,62.98828125,-491.2109375,189.94140625
1510174266108.4985,-391.11328125,-3.90625,73.73046875,49.31640625,227.5390625
1510174266112.4048,-388.18359375,4.39453125,78.125,119.140625,289.0625
1510174266116.311,-629.39453125,12.6953125,86.42578125,-513.671875,248.53515625
1510174266120.2173,-618.1640625,3.41796875,84.9609375,-713.37890625,185.05859375
1510174266124.1235,-435.05859375,-11.71875,82.51953125,-263.18359375,284.1796875
1510174266128.0298,-247.55859375,-13.671875,78.125,-3.41796875,372.0703125
1510174266145.103,-331.0546875,-9.27734375,77.63671875,-378.90625,347.65625
1510174266149.0093,-375.9765625,-14.16015625,83.984375,-727.05078125,248.046875
1510174266152.9155,-150.390625,-9.27734375,74.70703125,-524.4140625,207.03125
1510174266156.8218,81.0546875,-16.6015625,79.1015625,-44.43359375,295.41015625
1510174266160.728,0.0,-31.73828125,83.984375,-339.84375,403.3203125
1510174266164.6343,-129.8828125,-24.90234375,76.171875,-1000.0,-141.11328125
1510174266168.5405,39.55078125,-26.3671875,80.078125,-806.15234375,-296.875
1510174266172.4468,291.50390625,-27.83203125,63.96484375,-81.54296875,281.25
1510174266176.353,253.41796875,-32.71484375,62.5,-11.71875,301.7578125
1510174266180.2593,66.40625,-29.78515625,72.265625,-662.59765625,205.56640625
1510174266184.1655,171.38671875,-17.578125,61.5234375,-629.8828125,214.84375
1510174266188.0718,423.828125,-28.3203125,58.10546875,51.7578125,263.18359375
1510174266190.1375,604.4921875,-28.80859375,63.4765625,223.14453125,242.67578125
1510174266194.0437,514.16015625,-11.71875,63.4765625,-347.16796875,228.02734375
1510174266197.95,564.453125,-13.18359375,59.5703125,-484.86328125,177.734375
1510174266201.8562,870.1171875,-5.37109375,45.8984375,63.4765625,129.39453125
1510174266205.7625,-993.65234375,5.37109375,53.7109375,477.5390625,-116.2109375
1510174266209.6687,991.69921875,4.8828125,51.7578125,-44.921875,-230.46875
1510174266213.575,997.0703125,-8.30078125,36.1328125,-587.890625,-243.65234375
1510174266217.4812,-999.51171875,-5.859375,22.4609375,-278.80859375,-354.4921875
1510174266221.3875,999.0234375,0.48828125,8.7890625,246.58203125,-227.05078125
1510174266225.2937,999.51171875,3.90625,20.01953125,-66.40625,-371.09375
1510174266229.2,999.51171875,5.37109375,14.16015625,-626.953125,-469.23828125
1510174266233.1062,999.51171875,-17.578125,12.6953125,-374.0234375,-291.9921875
1510174266235.1675,999.51171875,2.44140625,18.5546875,182.12890625,-235.83984375
1510174266239.0737,999.51171875,21.484375,-2.44140625,72.75390625,-218.75
1510174266242.98,999.51171875,-10.25390625,-10.25390625,-671.875,-279.78515625
1510174266246.8862,999.51171875,-10.25390625,0.9765625,-644.04296875,-327.1484375
1510174266250.7925,999.51171875,-8.7890625,-2.9296875,-135.25390625,-281.73828125
1510174266254.6987,999.51171875,-4.8828125,-17.578125,49.31640625,-198.2421875
1510174266258.605,999.51171875,0.0,-14.16015625,-541.50390625,-215.33203125
1510174266262.5112,999.51171875,-1.46484375,-7.8125,-801.7578125,-260.25390625
1510174266266.4175,999.51171875,-8.7890625,-7.8125,-114.74609375,-207.51953125
1510174266270.3237,999.51171875,-18.5546875,2.44140625,486.328125,-195.80078125
1510174266274.23,999.51171875,-5.859375,-3.41796875,172.8515625,-187.01171875
1510174266278.1362,999.51171875,-2.9296875,7.8125,-280.2734375,-210.9375
1510174266280.1992,999.51171875,-24.4140625,18.06640625,28.80859375,-190.4296875
1510174266284.1055,999.51171875,11.23046875,-10.7421875,633.7890625,-114.2578125
1510174266288.0117,999.51171875,34.66796875,1.46484375,444.3359375,-104.4921875
1510174266291.918,999.51171875,-3.90625,8.30078125,-144.04296875,-111.328125
1510174266295.8242,999.51171875,8.7890625,-17.578125,43.9453125,-105.46875
1510174266299.7305,999.51171875,8.7890625,-4.8828125,687.01171875,-96.6796875
1510174266303.6367,999.51171875,13.671875,-0.48828125,877.9296875,-64.453125
1510174266307.543,-999.0234375,17.08984375,16.11328125,268.5546875,-36.62109375
1510174266311.4492,990.234375,7.32421875,21.484375,154.78515625,18.5546875
1510174266315.3555,-998.046875,11.23046875,-5.37109375,720.21484375,-59.5703125
1510174266319.2617,965.33203125,13.671875,5.37109375,-932.6171875,-132.32421875
1510174266323.168,620.1171875,18.5546875,15.625,618.1640625,302.734375
1510174266325.2314,286.1328125,25.87890625,14.6484375,203.125,569.82421875
1510174266329.1377,209.47265625,27.34375,14.16015625,624.0234375,539.0625
1510174266333.044,122.0703125,26.3671875,17.578125,-971.6796875,469.7265625
1510174266336.9502,-219.23828125,26.85546875,22.94921875,547.8515625,520.5078125
1510174266340.8564,-494.140625,22.4609375,27.34375,11.23046875,571.77734375
1510174266344.7627,-489.2578125,13.18359375,27.34375,298.828125,555.17578125
1510174266348.669,-404.296875,4.39453125,20.5078125,885.25390625,493.1640625
1510174266352.5752,-634.27734375,-2.44140625,21.97265625,696.77734375,370.60546875
1510174266356.4814,-953.125,-11.23046875,25.87890625,-114.2578125,230.95703125
1510174266360.3877,-839.84375,-13.671875,15.13671875,-89.35546875,277.83203125
1510174266364.294,-613.28125,-6.34765625,18.06640625,579.1015625,387.20703125
1510174266368.2002,-622.55859375,-13.18359375,23.4375,695.80078125,347.16796875
1510174266370.2627,-881.8359375,-18.5546875,23.92578125,-62.5,241.69921875
1510174266374.169,-928.22265625,-8.7890625,20.99609375,-322.75390625,133.7890625
1510174266378.0752,-754.8828125,-12.20703125,20.5078125,238.76953125,202.63671875
1510174266381.9814,-668.9453125,-16.11328125,22.4609375,627.9296875,271.484375
1510174266385.8877,-847.65625,-23.92578125,23.92578125,6.34765625,117.67578125
1510174266389.794,-941.89453125,-27.83203125,23.4375,-536.62109375,0.0
1510174266393.7002,-779.296875,-22.4609375,21.97265625,-66.40625,104.4921875
1510174266397.6064,-657.2265625,-23.92578125,21.97265625,395.01953125,194.3359375
1510174266401.5127,-800.78125,-24.4140625,28.3203125,98.6328125,176.26953125
1510174266405.419,-968.75,-27.83203125,29.296875,-338.8671875,-15.13671875
1510174266409.3252,-861.328125,-26.3671875,21.97265625,-109.375,40.0390625
1510174266413.2314,-637.20703125,-17.578125,29.78515625,661.1328125,119.62890625
1510174266430.306,-608.3984375,-17.08984375,33.203125,804.6875,63.96484375
1510174266434.2122,-862.79296875,-22.94921875,24.4140625,144.04296875,0.0
1510174266438.1184,-935.546875,-19.04296875,12.6953125,19.53125,-109.86328125
1510174266442.0247,-769.53125,-7.8125,5.37109375,499.0234375,-44.43359375
1510174266445.931,-812.5,3.90625,6.34765625,604.00390625,-6.8359375
1510174266449.8372,-969.23828125,8.7890625,12.6953125,-282.2265625,-388.671875
1510174266453.7434,-977.5390625,21.484375,19.04296875,-652.83203125,-724.12109375
1510174266457.6497,-919.43359375,22.4609375,17.578125,-3.90625,-410.64453125
1510174266461.556,-844.7265625,15.625,15.625,562.5,20.01953125
1510174266465.4622,-918.45703125,13.18359375,23.4375,30.2734375,-207.03125
1510174266469.3684,-982.421875,4.39453125,24.4140625,-562.01171875,-564.94140625
1510174266473.2747,-867.67578125,15.13671875,19.04296875,-82.03125,-250.48828125
1510174266460.3271,-663.0859375,24.90234375,23.92578125,554.6875,11.23046875
1510174266464.2334,-760.25390625,26.3671875,19.04296875,206.0546875,-95.21484375
1510174266468.1396,-921.38671875,30.76171875,16.6015625,-515.13671875,-179.6875
1510174266472.046,-775.87890625,37.59765625,23.92578125,-346.19140625,-115.72265625
1510174266475.9521,-604.4921875,39.0625,16.6015625,238.76953125,-67.3828125
1510174266479.8584,-613.76953125,38.0859375,20.5078125,186.03515625,-70.3125
1510174266483.7646,-732.421875,41.015625,28.80859375,-500.48828125,-118.1640625
1510174266487.671,-640.625,34.1796875,23.4375,-611.81640625,-145.99609375
1510174266491.5771,-404.296875,29.296875,19.04296875,8.30078125,-86.9140625
1510174266495.4834,-328.61328125,29.296875,23.4375,270.99609375,-98.6328125
1510174266499.3896,-526.3671875,28.80859375,27.83203125,-441.89453125,-165.0390625
1510174266503.296,-548.33984375,37.109375,26.85546875,-726.5625,-216.796875
1510174266520.3738,-308.59375,38.57421875,25.87890625,-151.85546875,-230.95703125
1510174266524.28,-178.22265625,41.9921875,15.625,251.46484375,-168.45703125
1510174266528.1863,-360.83984375,45.41015625,22.4609375,-274.90234375,-169.921875
1510174266532.0925,-490.234375,49.8046875,30.76171875,-810.546875,-308.10546875
1510174266535.9988,-339.35546875,50.78125,18.06640625,-473.6328125,-303.22265625
1510174266539.905,-168.9453125,43.45703125,23.92578125,31.25,-233.88671875
1510174266543.8113,-312.5,40.52734375,25.87890625,-246.09375,-215.8203125
1510174266547.7175,-485.3515625,53.7109375,20.5078125,-890.13671875,-339.35546875
1510174266551.6238,-361.328125,53.22265625,24.90234375,-720.703125,-419.921875
1510174266555.53,-184.08203125,40.52734375,16.6015625,-72.75390625,-305.6640625
1510174266559.4363,-201.171875,41.9921875,14.16015625,-9.27734375,-274.90234375
1510174266563.3425,-430.6640625,44.921875,20.99609375,-691.40625,-362.3046875
1510174266565.404,-417.96875,41.9921875,20.01953125,-845.703125,-437.5
1510174266569.3103,-194.3359375,38.0859375,14.16015625,-239.74609375,-370.1171875
1510174266573.2166,-69.3359375,44.43359375,10.25390625,118.1640625,-305.6640625
1510174266577.1228,-267.578125,49.8046875,12.20703125,-434.5703125,-364.74609375
1510174266581.029,-291.015625,54.19921875,13.18359375,-721.19140625,-437.5
1510174266584.9353,-44.921875,55.6640625,11.71875,-132.8125,-416.015625
1510174266588.8416,115.234375,59.5703125,4.39453125,487.3046875,-351.07421875
1510174266592.7478,-17.08984375,66.40625,6.8359375,167.48046875,-336.42578125
1510174266596.654,-190.91796875,71.77734375,18.5546875,-355.95703125,-359.86328125
1510174266600.5603,-63.96484375,79.58984375,13.18359375,-43.9453125,-368.1640625
1510174266604.4666,153.80859375,79.1015625,7.32421875,587.40234375,-342.7734375
1510174266608.3728,63.4765625,81.0546875,17.08984375,487.79296875,-333.49609375
1510174266609.9333,-162.109375,79.1015625,18.5546875,-168.45703125,-334.47265625
1510174266613.8396,-98.14453125,74.21875,17.578125,-58.59375,-325.68359375
1510174266617.7458,53.22265625,68.84765625,15.625,567.3828125,-315.4296875
1510174266621.652,-4.8828125,68.359375,18.5546875,689.94140625,-291.9921875
1510174266625.5583,-317.87109375,69.3359375,24.90234375,-4.8828125,-299.31640625
1510174266629.4646,-298.33984375,66.40625,22.4609375,-254.8828125,-315.91796875
1510174266633.3708,-134.27734375,62.5,22.94921875,299.31640625,-285.64453125
1510174266637.277,-143.06640625,63.96484375,25.87890625,704.1015625,-233.3984375
1510174266641.1833,-341.30859375,61.03515625,22.4609375,148.92578125,-217.7734375
1510174266645.0896,-479.4921875,53.22265625,20.5078125,-270.01953125,-208.984375
1510174266648.9958,-297.8515625,58.10546875,17.578125,211.42578125,-174.31640625
1510174266652.902,-169.921875,59.5703125,11.71875,707.03125,-158.69140625
1510174266654.965,-349.12109375,60.05859375,17.08984375,351.5625,-133.7890625
1510174266658.8713,-510.7421875,52.24609375,22.94921875,-134.27734375,-141.6015625
1510174266662.7776,-412.109375,44.921875,20.5078125,217.28515625,-126.46484375
1510174266666.6838,-225.09765625,50.78125,16.11328125,830.56640625,-123.53515625
1510174266670.59,-305.17578125,48.33984375,16.6015625,700.68359375,-107.91015625
1510174266674.4963,-555.17578125,41.015625,20.01953125,-33.203125,-63.4765625
1510174266678.4026,-463.8671875,41.015625,17.578125,-77.63671875,-63.4765625
1510174266682.3088,-257.8125,37.109375,15.625,545.8984375,-18.5546875
1510174266686.215,-275.390625,36.62109375,23.92578125,719.7265625,-20.01953125
1510174266690.1213,-489.74609375,40.52734375,28.3203125,110.3515625,9.765625
1510174266694.0276,-512.6953125,35.64453125,26.3671875,-66.40625,35.15625
1510174266697.9338,-330.56640625,24.90234375,23.4375,423.33984375,41.015625
1510174266699.9995,-218.75,23.4375,20.99609375,803.7109375,55.6640625
1510174266703.9058,-400.390625,31.73828125,24.90234375,312.98828125,82.51953125
1510174266707.812,-522.94921875,38.0859375,23.92578125,-175.29296875,82.51953125
1510174266711.7183,-400.390625,34.1796875,22.94921875,147.4609375,75.1953125
1510174266715.6245,-217.7734375,29.296875,25.87890625,666.015625,110.83984375
1510174266719.5308,-333.49609375,27.34375,33.69140625,403.3203125,108.3984375
1510174266723.437,-549.31640625,20.99609375,30.2734375,-209.9609375,110.3515625
1510174266727.3433,-454.58984375,21.97265625,20.99609375,-85.44921875,79.1015625
1510174266731.2495,-246.58203125,28.3203125,21.484375,468.26171875,90.33203125
1510174266735.1558,-284.1796875,28.80859375,19.53125,484.86328125,126.46484375
1510174266739.062,-503.90625,24.4140625,21.97265625,-204.1015625,77.1484375
1510174266742.9683,-443.84765625,23.4375,20.01953125,-303.7109375,71.2890625
1510174266745.0315,-187.5,21.97265625,18.5546875,277.83203125,85.44921875
1510174266748.9377,-91.796875,19.04296875,15.13671875,520.01953125,51.7578125
1510174266752.844,-299.31640625,24.4140625,24.4140625,-88.37890625,51.26953125
1510174266756.7502,-349.12109375,25.87890625,29.296875,-402.83203125,65.91796875
1510174266760.6565,-155.76171875,22.4609375,18.5546875,68.84765625,90.8203125
1510174266764.5627,-26.3671875,17.578125,14.16015625,507.32421875,104.4921875
1510174266768.469,-220.703125,13.671875,16.11328125,25.390625,90.33203125
1510174266772.3752,-389.6484375,17.08984375,17.578125,-530.2734375,44.921875
1510174266776.2815,-223.6328125,20.99609375,10.7421875,-181.640625,74.21875
1510174266780.1877,-31.25,17.08984375,7.32421875,443.84765625,145.5078125
1510174266784.094,-174.31640625,10.7421875,11.71875,200.1953125,124.0234375
1510174266788.0002,-388.671875,9.765625,15.625,-454.1015625,50.78125
1510174266790.061,-288.57421875,11.71875,12.6953125,-271.97265625,72.265625
1510174266793.9673,-86.9140625,15.13671875,2.9296875,314.94140625,95.703125
1510174266797.8735,-112.79296875,21.97265625,2.9296875,353.515625,89.84375
1510174266801.7798,-354.4921875,24.4140625,17.578125,-297.36328125,63.96484375
1510174266805.686,-360.3515625,19.53125,15.625,-432.6171875,47.36328125
1510174266809.5923,-177.734375,20.5078125,11.71875,147.4609375,95.703125
1510174266813.4985,-122.55859375,26.3671875,16.11328125,433.10546875,97.16796875
1510174266817.4048,-333.0078125,32.71484375,16.6015625,-216.796875,57.6171875
1510174266821.311,-446.77734375,26.3671875,21.484375,-546.38671875,28.3203125
1510174266825.2173,-304.19921875,20.01953125,20.01953125,-69.3359375,28.3203125
1510174266829.1235,-164.55078125,28.80859375,9.27734375,327.1484375,41.015625
1510174266833.0298,-327.1484375,35.64453125,7.8125,-122.0703125,34.66796875
1510174266835.1128,-476.07421875,35.64453125,12.20703125,-696.2890625,-13.18359375
1510174266839.019,-348.6328125,37.59765625,7.32421875,-440.4296875,-10.25390625
1510174266842.9253,-184.5703125,36.62109375,3.90625,113.28125,38.0859375
1510174266846.8315,-272.4609375,33.69140625,10.7421875,-68.359375,22.4609375
1510174266850.7378,-482.91015625,34.1796875,15.625,-756.34765625,-14.6484375
1510174266854.644,-433.10546875,28.3203125,14.16015625,-709.9609375,-36.1328125
1510174266858.5503,-248.046875,27.34375,9.765625,-139.16015625,14.16015625
1510174266862.4565,-249.0234375,30.2734375,7.8125,-1.953125,65.91796875
1510174266866.3628,-468.75,30.2734375,10.25390625,-561.5234375,11.23046875
1510174266870.269,-448.73046875,30.76171875,12.6953125,-725.5859375,-86.42578125
1510174266874.1753,-234.86328125,33.69140625,12.6953125,-206.54296875,-36.1328125
1510174266878.0815,-162.59765625,39.0625,8.30078125,202.1484375,52.734375
1510174266895.48,-380.859375,40.0390625,14.16015625,-250.9765625,-8.7890625
1510174266899.3862,-439.453125,39.0625,18.06640625,-643.06640625,-74.70703125
1510174266903.2925,-240.234375,39.55078125,14.6484375,-211.9140625,-21.97265625
1510174266907.1987,-90.8203125,40.52734375,11.71875,338.37890625,32.2265625
1510174266911.105,-229.98046875,40.52734375,14.16015625,31.25,30.76171875
1510174266915.0112,-394.04296875,36.62109375,17.08984375,-561.03515625,-55.6640625
1510174266918.9175,-269.53125,41.015625,11.71875,-358.88671875,-63.4765625
1510174266922.8237,-79.1015625,40.52734375,4.8828125,288.57421875,23.4375
1510174266926.73,-148.4375,31.25,9.27734375,262.6953125,18.06640625
1510174266930.6362,-353.515625,37.59765625,16.6015625,-411.1328125,-37.109375
1510174266934.5425,-266.6015625,40.52734375,11.23046875,-331.54296875,-67.87109375
1510174266938.4487,-66.89453125,36.1328125,9.27734375,274.4140625,-25.87890625
1510174266940.007,-45.8984375,29.78515625,10.7421875,330.078125,60.546875
1510174266943.9133,-249.0234375,23.4375,16.11328125,-251.953125,62.98828125
1510174266947.8196,-257.32421875,17.578125,17.08984375,-415.52734375,41.9921875
1510174266951.7258,-34.1796875,7.8125,12.20703125,147.4609375,86.42578125
1510174266955.632,85.44921875,6.34765625,7.8125,587.40234375,97.65625
1510174266959.5383,-95.21484375,8.30078125,9.765625,67.87109375,81.0546875
1510174266963.4446,-175.29296875,5.859375,12.20703125,-348.14453125,53.22265625
1510174266967.3508,-2.9296875,4.39453125,6.34765625,74.70703125,31.25
1510174266971.257,159.1796875,7.32421875,4.8828125,648.4375,34.66796875
1510174266975.1633,14.6484375,12.20703125,11.71875,349.609375,31.25
1510174266979.0696,-184.08203125,14.16015625,10.25390625,-220.21484375,60.05859375
1510174266982.9758,-56.15234375,10.7421875,8.30078125,38.0859375,98.14453125
1510174266985.0386,119.62890625,11.71875,7.32421875,587.40234375,99.609375
1510174266988.9448,58.59375,17.578125,9.27734375,543.45703125,123.046875
1510174266992.851,-147.4609375,18.06640625,13.18359375,-104.00390625,157.71484375
1510174266996.7573,-101.5625,20.99609375,8.30078125,-137.6953125,160.64453125
1510174267000.6636,106.93359375,26.3671875,6.34765625,435.546875,155.2734375
1510174267004.5698,148.92578125,25.390625,7.8125,644.04296875,151.3671875
1510174267008.476,-67.3828125,20.5078125,12.20703125,15.625,125.9765625
1510174267012.3823,-119.140625,13.671875,19.04296875,-233.88671875,138.18359375
1510174267016.2886,73.73046875,15.625,18.5546875,258.7890625,133.7890625
1510174267020.1948,207.03125,18.06640625,17.578125,697.265625,103.02734375
1510174267024.101,30.2734375,18.06640625,20.99609375,339.35546875,120.1171875
1510174267028.0073,-100.09765625,18.06640625,19.53125,-114.74609375,144.53125
1510174267030.091,81.54296875,17.08984375,14.6484375,222.16796875,192.3828125
1510174267033.9973,263.18359375,17.08984375,9.765625,780.76171875,163.0859375
1510174267037.9036,147.94921875,20.01953125,12.6953125,551.26953125,147.94921875
1510174267041.8098,-28.3203125,23.4375,22.4609375,-97.65625,166.50390625
1510174267045.716,121.09375,29.296875,20.99609375,20.01953125,145.01953125
1510174267049.6223,331.0546875,23.92578125,19.53125,584.9609375,106.93359375
1510174267053.5286,274.4140625,12.6953125,24.90234375,599.12109375,104.4921875
1510174267057.4348,78.61328125,11.23046875,25.87890625,-49.31640625,122.55859375
1510174267061.341,116.2109375,8.7890625,23.4375,-267.578125,63.4765625
1510174267065.2473,306.15234375,10.25390625,15.13671875,237.3046875,57.12890625
1510174267069.1536,349.609375,7.32421875,17.08984375,604.4921875,109.375
1510174267073.0598,105.46875,1.46484375,29.296875,10.25390625,77.1484375
1510174267075.1042,19.53125,0.48828125,28.80859375,-357.421875,78.61328125
1510174267079.0105,178.22265625,0.48828125,23.92578125,98.14453125,93.75
1510174267082.9167,290.0390625,6.8359375,22.4609375,567.3828125,71.77734375
1510174267086.823,135.7421875,14.16015625,22.94921875,10.7421875,86.42578125
1510174267090.7292,-18.06640625,14.16015625,26.3671875,-617.67578125,54.6875
1510174267094.6355,64.453125,13.18359375,27.34375,-246.09375,41.50390625
1510174267098.5417,188.96484375,14.6484375,25.390625,333.49609375,47.8515625
1510174267102.448,87.40234375,14.6484375,28.80859375,185.546875,13.18359375
1510174267106.3542,-126.46484375,15.625,28.3203125,-470.21484375,-18.06640625
1510174267110.2605,-27.34375,20.5078125,20.5078125,-346.19140625,35.64453125
1510174267114.1667,216.796875,20.99609375,20.01953125,261.71875,44.921875
1510174267118.073,213.37890625,23.4375,25.87890625,322.75390625,19.04296875
1510174267120.1357,-12.6953125,32.71484375,35.15625,-284.1796875,15.625
1510174267124.042,-30.2734375,30.2734375,37.109375,-392.578125,8.7890625
1510174267127.9482,140.13671875,24.4140625,35.64453125,117.1875,38.57421875
1510174267131.8545,191.89453125,21.97265625,35.64453125,456.54296875,48.828125
1510174267135.7607,-38.57421875,21.484375,30.2734375,-49.8046875,38.57421875
1510174267139.667,-121.09375,17.578125,30.2734375,-375.9765625,7.32421875
1510174267143.5732,20.01953125,11.23046875,34.66796875,77.63671875,19.04296875
1510174267147.4795,148.4375,9.765625,32.2265625,500.9765625,33.69140625
1510174267151.3857,29.296875,17.08984375,26.85546875,128.41796875,55.17578125
1510174267155.292,-156.73828125,22.94921875,23.4375,-377.44140625,28.3203125
1510174267159.1982,-76.66015625,15.13671875,20.99609375,-122.55859375,14.6484375
1510174267163.1045,72.75390625,10.7421875,21.97265625,497.55859375,73.2421875
1510174267165.187,-15.13671875,15.13671875,24.4140625,448.2421875,82.51953125
1510174267169.0933,-236.81640625,13.18359375,28.3203125,-229.4921875,91.796875
1510174267172.9995,-181.640625,14.16015625,25.87890625,-185.05859375,81.54296875
1510174267176.9058,3.90625,17.08984375,17.578125,394.04296875,66.89453125
1510174267180.812,29.296875,18.5546875,20.5078125,565.91796875,79.58984375
1510174267184.7183,-163.57421875,14.16015625,23.92578125,7.32421875,84.47265625
1510174267188.6245,-179.6875,9.765625,23.4375,-271.97265625,48.828125
1510174267192.5308,10.7421875,23.4375,16.6015625,175.29296875,29.296875
1510174267196.437,102.5390625,20.5078125,12.6953125,615.72265625,79.58984375
1510174267200.3433,-83.49609375,8.7890625,26.3671875,145.99609375,75.68359375
1510174267204.2495,-202.1484375,15.625,25.87890625,-336.42578125,57.6171875
1510174267208.1558,-83.0078125,20.5078125,13.671875,20.01953125,87.890625
1510174267225.2087,55.6640625,12.20703125,10.25390625,605.95703125,98.6328125
1510174267229.115,-64.94140625,8.7890625,13.671875,400.87890625,134.765625
1510174267233.0212,-249.0234375,15.13671875,13.671875,-178.7109375,137.20703125
1510174267236.9275,-167.48046875,17.578125,8.7890625,-118.1640625,147.4609375
1510174267240.8337,7.32421875,10.7421875,8.7890625,329.1015625,191.89453125
1510174267244.74,-66.89453125,2.9296875,13.671875,372.55859375,168.45703125
1510174267248.6462,-322.265625,6.8359375,13.671875,-184.08203125,130.37109375
1510174267252.5525,-272.94921875,12.6953125,13.18359375,-170.8984375,101.07421875
1510174267256.4587,-31.73828125,12.20703125,8.7890625,408.203125,149.4140625
1510174267260.365,20.5078125,10.7421875,7.8125,541.015625,178.22265625
1510174267264.2712,-223.6328125,5.37109375,17.578125,-61.5234375,142.08984375
1510174267268.1775,-253.90625,6.34765625,13.671875,-254.8828125,136.23046875
1510174267255.2322,-19.04296875,8.7890625,3.90625,260.7421875,152.34375
1510174267259.1384,101.5625,6.8359375,2.44140625,624.51171875,173.828125
1510174267263.0447,-95.21484375,15.13671875,7.32421875,99.12109375,191.40625
1510174267266.951,-220.21484375,26.3671875,11.71875,-348.6328125,143.5546875
1510174267270.8572,-85.44921875,28.3203125,10.7421875,34.1796875,134.27734375
1510174267274.7634,83.0078125,28.80859375,6.34765625,641.6015625,188.96484375
1510174267278.6697,-67.3828125,32.2265625,12.20703125,367.1875,215.8203125
1510174267282.576,-309.5703125,34.1796875,17.578125,-268.5546875,235.3515625
1510174267286.4822,-218.26171875,30.76171875,13.18359375,-41.50390625,266.6015625
1510174267290.3884,-54.19921875,31.25,9.765625,543.9453125,249.0234375
1510174267294.2947,-31.73828125,33.203125,14.6484375,560.05859375,257.32421875
1510174267298.201,-204.1015625,34.66796875,15.625,-23.92578125,278.80859375
1510174267315.2732,-160.64453125,35.64453125,8.30078125,-99.12109375,250.48828125
1510174267319.1794,65.91796875,36.1328125,4.8828125,416.50390625,261.23046875
1510174267323.0857,192.87109375,30.2734375,4.39453125,645.99609375,258.7890625
1510174267326.992,59.5703125,22.4609375,9.765625,57.6171875,256.8359375
1510174267330.8982,58.59375,19.04296875,10.7421875,-293.9453125,242.1875
1510174267334.8044,283.69140625,20.99609375,6.8359375,119.62890625,229.4921875
1510174267338.7107,362.79296875,23.4375,7.32421875,541.015625,225.09765625
1510174267342.617,157.71484375,24.90234375,12.6953125,43.45703125,238.76953125
1510174267346.5232,0.0,29.296875,12.20703125,-524.4140625,224.12109375
1510174267350.4294,136.23046875,18.06640625,15.625,-274.4140625,146.97265625
1510174267354.3357,313.4765625,17.08984375,12.6953125,324.21875,125.0
1510174267358.242,201.171875,15.625,6.34765625,197.75390625,134.765625
1510174267360.309,49.31640625,2.9296875,11.23046875,-522.4609375,74.21875
1510174267364.2153,120.1171875,20.5078125,8.30078125,-504.8828125,97.65625
1510174267368.1216,298.33984375,7.32421875,3.41796875,85.9375,154.78515625
1510174267372.0278,315.4296875,-0.9765625,1.953125,201.171875,129.39453125
1510174267375.934,23.4375,17.578125,13.18359375,-472.16796875,65.4296875
1510174267379.8403,0.48828125,29.296875,2.44140625,-642.08984375,19.04296875
1510174267383.7466,171.38671875,17.08984375,16.11328125,-102.05078125,43.45703125
1510174267387.6528,270.5078125,-2.9296875,22.94921875,287.59765625,59.08203125
1510174267391.559,123.046875,-5.37109375,8.30078125,-131.34765625,2.44140625
1510174267395.4653,-33.69140625,6.8359375,12.6953125,-479.4921875,-23.92578125
1510174267399.3716,49.8046875,25.390625,8.7890625,-31.73828125,31.73828125
1510174267403.2778,217.28515625,7.8125,8.7890625,475.5859375,40.52734375
1510174267405.3386,72.265625,18.06640625,18.5546875,56.640625,5.37109375
1510174267409.2449,-104.00390625,20.99609375,19.04296875,-496.58203125,-0.48828125
1510174267413.1511,84.47265625,-3.41796875,12.6953125,-140.625,0.48828125
1510174267417.0574,261.71875,2.44140625,17.08984375,484.375,8.7890625
1510174267420.9636,194.3359375,-0.9765625,35.15625,355.46875,51.7578125
1510174267424.8699,23.92578125,2.9296875,46.38671875,-246.09375,75.68359375
1510174267428.7761,83.49609375,21.484375,17.08984375,-189.94140625,53.7109375
1510174267432.6824,315.91796875,-2.44140625,8.30078125,389.16015625,49.8046875
1510174267436.5886,318.84765625,0.0,30.2734375,536.62109375,53.7109375
1510174267440.4949,67.3828125,47.36328125,4.39453125,-99.609375,63.4765625
1510174267444.4011,44.921875,14.16015625,8.30078125,-257.8125,89.84375
1510174267448.3074,248.046875,-14.6484375,18.5546875,314.453125,89.35546875
1510174267449.9358,306.15234375,9.27734375,14.16015625,669.43359375,91.30859375
1510174267453.842,20.01953125,3.41796875,37.109375,130.859375,121.09375
1510174267457.7483,-62.98828125,8.7890625,12.6953125,-218.26171875,128.41796875
1510174267461.6545,88.37890625,1.953125,2.44140625,188.96484375,156.73828125
1510174267465.5608,192.3828125,-1.953125,27.83203125,665.0390625,172.36328125
1510174267469.467,53.22265625,9.27734375,35.64453125,353.02734375,122.0703125
1510174267473.3733,-152.83203125,10.25390625,8.30078125,-309.5703125,96.6796875
1510174267477.2795,-96.6796875,14.6484375,2.9296875,-202.1484375,85.9375
1510174267481.1858,48.33984375,13.671875,7.32421875,362.3046875,63.96484375
1510174267485.092,-40.52734375,21.484375,13.671875,363.76953125,87.40234375
1510174267488.9983,-308.59375,20.01953125,14.6484375,-302.24609375,114.74609375
1510174267492.9045,-278.3203125,3.90625,7.8125,-422.8515625,93.75
1510174267494.9866,-76.171875,11.23046875,9.27734375,96.6796875,126.953125
1510174267498.8928,-94.23828125,34.66796875,20.99609375,282.2265625,141.11328125
1510174267502.799,-395.99609375,30.2734375,39.0625,-325.1953125,74.21875
1510174267506.7053,-405.76171875,7.8125,12.6953125,-519.04296875,36.62109375
1510174267510.6116,-145.99609375,16.11328125,-20.99609375,50.78125,62.5
1510174267514.5178,-46.875,15.13671875,0.48828125,424.8046875,106.4453125
1510174267518.424,-243.65234375,-1.953125,25.390625,-87.40234375,105.46875
1510174267522.3303,-386.71875,11.23046875,26.85546875,-581.54296875,39.55078125
1510174267526.2366,-229.98046875,24.90234375,7.8125,-193.84765625,97.16796875
1510174267530.1428,-55.17578125,18.5546875,9.27734375,440.4296875,158.69140625
1510174267534.049,-187.01171875,39.55078125,20.99609375,112.79296875,117.67578125
1510174267537.9553,-380.37109375,46.875,13.671875,-552.24609375,76.66015625
1510174267540.5107,-318.84765625,42.96875,23.92578125,-385.25390625,71.2890625
1510174267544.417,-158.203125,44.921875,2.44140625,213.8671875,145.5078125
1510174267548.3232,-147.4609375,27.83203125,-8.30078125,288.57421875,181.640625
1510174267552.2295,-371.09375,31.25,11.23046875,-375.0,108.3984375
1510174267556.1357,-415.52734375,51.7578125,9.27734375,-516.6015625,100.09765625
1510174267560.042,-250.48828125,66.40625,3.90625,88.37890625,148.92578125
1510174267563.9482,-195.3125,28.3203125,4.39453125,372.55859375,119.140625
1510174267567.8545,-377.44140625,13.671875,8.7890625,-300.29296875,74.70703125
1510174267571.7607,-442.87109375,30.2734375,10.25390625,-574.21875,71.77734375
1510174267575.667,-265.13671875,29.296875,7.8125,-50.78125,120.1171875
1510174267579.5732,-119.140625,33.69140625,3.41796875,384.27734375,154.296875
1510174267583.4795,-280.2734375,30.2734375,22.4609375,-79.58984375,147.94921875
1510174267585.0508,-429.6875,48.33984375,23.4375,-602.5390625,95.21484375
1510174267588.957,-298.33984375,47.8515625,24.4140625,-222.65625,96.19140625
1510174267592.8633,-117.67578125,14.16015625,33.203125,316.40625,149.4140625
1510174267596.7695,-210.44921875,16.6015625,27.34375,71.77734375,130.37109375
1510174267600.6758,-394.04296875,19.04296875,39.0625,-566.40625,72.265625
1510174267604.582,-294.921875,20.01953125,32.71484375,-471.19140625,63.4765625
1510174267608.4883,-92.7734375,19.04296875,9.765625,96.6796875,90.8203125
1510174267612.3945,-115.234375,18.5546875,12.6953125,188.4765625,104.98046875
1510174267616.3008,-386.23046875,27.83203125,22.94921875,-441.40625,90.33203125
1510174267620.207,-363.76953125,17.578125,24.4140625,-571.2890625,55.17578125
1510174267624.1133,-91.796875,2.9296875,17.08984375,52.24609375,83.984375
1510174267628.0195,-39.55078125,21.97265625,14.16015625,373.046875,138.671875
1510174267645.0923,-251.953125,22.4609375,14.6484375,-145.01953125,116.2109375
1510174267648.9985,-397.4609375,34.1796875,37.59765625,-541.50390625,76.66015625
1510174267652.9048,-220.703125,17.578125,29.296875,-133.7890625,75.1953125
1510174267656.811,4.39453125,-16.11328125,6.34765625,416.015625,70.80078125
1510174267660.7173,-170.8984375,5.37109375,22.4609375,38.0859375,102.5390625
1510174267664.6235,-304.6875,4.8828125,24.4140625,-522.94921875,50.29296875
1510174267668.5298,-177.734375,28.80859375,13.18359375,-260.7421875,6.8359375
1510174267672.436,2.44140625,30.2734375,14.6484375,346.19140625,92.7734375
1510174267676.3423,-69.82421875,0.0,24.90234375,216.30859375,126.953125
1510174267680.2485,-286.1328125,6.8359375,24.4140625,-533.203125,48.33984375
1510174267684.1548,-216.796875,6.34765625,23.4375,-476.07421875,40.52734375
1510174267688.061,-0.48828125,4.8828125,19.04296875,201.66015625,71.77734375
1510174267690.2253,45.41015625,17.08984375,17.08984375,271.484375,32.71484375
1510174267694.1316,-189.453125,19.04296875,21.97265625,-420.41015625,-19.04296875
1510174267698.0378,-254.39453125,9.27734375,19.53125,-568.359375,-76.66015625
1510174267701.944,-56.640625,6.34765625,11.71875,-33.69140625,-79.1015625
1510174267705.8503,92.7734375,12.20703125,11.23046875,287.109375,-57.6171875
1510174267709.7566,-99.12109375,19.53125,17.08984375,-254.8828125,-71.77734375
1510174267713.6628,-240.72265625,20.5078125,16.11328125,-679.19921875,-120.60546875
1510174267717.569,-104.98046875,19.04296875,12.20703125,-285.64453125,-107.421875
1510174267721.4753,16.11328125,22.94921875,12.6953125,219.7265625,-66.40625
1510174267725.3816,-158.203125,30.2734375,16.6015625,-160.64453125,-104.98046875
1510174267729.2878,-356.93359375,31.25,17.578125,-784.66796875,-184.08203125
1510174267733.194,-213.8671875,29.78515625,12.20703125,-534.1796875,-211.9140625
1510174267735.239,-15.13671875,23.92578125,11.71875,-12.6953125,-224.609375
1510174267739.1453,-78.61328125,18.06640625,17.08984375,-196.77734375,-187.01171875
1510174267743.0515,-241.2109375,19.04296875,20.99609375,-890.625,-587.890625
1510174267746.9578,-117.67578125,18.5546875,18.5546875,-924.31640625,-867.1875
1510174267750.864,182.12890625,20.5078125,12.20703125,-255.859375,-463.8671875
1510174267754.7703,293.45703125,20.5078125,14.16015625,89.35546875,-320.3125
1510174267758.6765,92.28515625,24.4140625,18.06640625,-426.26953125,-365.234375
1510174267762.5828,81.0546875,26.85546875,19.04296875,-569.82421875,-412.109375
1510174267766.489,311.03515625,27.34375,20.01953125,2.9296875,-387.6953125
1510174267770.3953,429.6875,29.296875,19.04296875,491.2109375,-352.5390625
1510174267774.3015,186.5234375,29.296875,22.4609375,131.8359375,-369.140625
1510174267778.2078,8.30078125,28.3203125,28.3203125,-274.4140625,-373.53515625
1510174267795.2812,175.29296875,26.3671875,24.4140625,103.02734375,-355.46875
1510174267799.1875,354.00390625,26.85546875,16.6015625,656.73828125,-352.05078125
1510174267803.0938,209.47265625,29.78515625,15.625,414.0625,-356.93359375
1510174267807.0,-26.85546875,30.2734375,22.94921875,-148.92578125,-354.98046875
1510174267810.9062,65.4296875,32.71484375,24.4140625,118.65234375,-330.56640625
1510174267814.8125,264.16015625,29.296875,20.5078125,774.4140625,-348.14453125
1510174267818.7188,192.87109375,24.90234375,16.6015625,770.5078125,-369.140625
1510174267822.625,-56.640625,28.3203125,17.578125,182.6171875,-330.078125
1510174267826.5312,-60.546875,24.4140625,19.04296875,129.39453125,-283.69140625
1510174267830.4375,119.140625,17.578125,12.6953125,686.03515625,-301.7578125
1510174267834.3438,168.9453125,16.11328125,11.23046875,999.0234375,-406.73828125
1510174267838.25,-68.359375,19.04296875,13.18359375,491.69921875,-332.51953125
1510174267825.3027,-171.875,16.11328125,12.20703125,225.5859375,-219.7265625
1510174267829.209,-23.92578125,10.7421875,11.71875,688.4765625,-189.94140625
1510174267833.1152,65.91796875,7.8125,13.18359375,-952.1484375,-334.9609375
1510174267837.0215,-128.90625,12.20703125,17.578125,610.83984375,-291.9921875
1510174267840.9277,-283.69140625,17.578125,14.16015625,148.92578125,-165.0390625
1510174267844.834,-187.01171875,19.53125,8.7890625,483.88671875,-119.62890625
1510174267848.7402,-39.55078125,11.71875,11.23046875,976.5625,-230.46875
1510174267852.6465,-170.8984375,3.90625,19.53125,765.625,-212.890625
1510174267856.5527,-427.24609375,12.6953125,18.5546875,159.1796875,-49.31640625
1510174267860.459,-365.234375,13.18359375,13.671875,335.9375,26.3671875
1510174267864.3652,-138.671875,6.8359375,11.71875,913.0859375,-125.9765625
1510174267868.2715,-147.4609375,5.37109375,19.04296875,877.44140625,-261.23046875
1510174267870.353,-390.625,7.32421875,23.4375,224.609375,-59.5703125
1510174267874.2593,-368.1640625,13.18359375,17.578125,132.32421875,33.203125
1510174267878.1655,-134.765625,11.23046875,18.5546875,672.36328125,45.8984375
1510174267882.0718,-2.44140625,11.23046875,18.06640625,875.9765625,27.34375
1510174267885.978,-183.59375,13.18359375,20.99609375,245.1171875,23.92578125
1510174267889.8843,-265.13671875,7.8125,20.01953125,-97.65625,55.17578125
1510174267893.7905,-55.17578125,-1.953125,20.01953125,349.12109375,72.75390625
1510174267897.6968,90.8203125,-3.90625,18.06640625,674.8046875,48.33984375
1510174267901.603,-34.66796875,3.41796875,18.06640625,258.7890625,47.36328125
1510174267905.5093,-120.1171875,8.30078125,22.4609375,-165.52734375,-2.9296875
1510174267909.4155,63.4765625,10.25390625,20.01953125,76.66015625,-52.24609375
1510174267913.3218,281.25,20.01953125,17.578125,616.69921875,-27.83203125
1510174267915.365,146.484375,28.3203125,21.97265625,385.25390625,-37.109375
1510174267919.2712,-66.40625,20.5078125,29.78515625,-398.4375,-91.30859375
1510174267923.1775,41.50390625,14.16015625,33.203125,-348.14453125,-100.5859375
1510174267927.0837,235.3515625,17.578125,28.3203125,276.85546875,-78.61328125
1510174267930.99,237.3046875,17.08984375,23.4375,451.171875,-76.66015625
1510174267934.8962,-11.71875,18.5546875,26.85546875,-209.9609375,-47.36328125
1510174267938.8025,-28.80859375,20.01953125,27.34375,-465.33203125,-32.71484375
1510174267942.7087,185.546875,17.578125,21.97265625,15.625,-66.40625
1510174267946.615,262.20703125,20.5078125,14.6484375,425.29296875,-50.78125
1510174267950.5212,33.69140625,19.53125,19.53125,-43.9453125,-22.4609375
1510174267954.4275,-83.984375,17.08984375,23.4375,-553.7109375,-72.265625
1510174267958.3337,66.40625,17.08984375,23.92578125,-246.09375,-82.03125
1510174267959.907,214.84375,19.04296875,21.97265625,246.09375,-39.0625
1510174267963.8132,65.4296875,22.94921875,20.01953125,-99.12109375,-49.31640625
1510174267967.7195,-120.1171875,25.390625,22.94921875,-706.0546875,-84.47265625
1510174267971.6257,8.7890625,30.2734375,20.01953125,-499.0234375,-122.0703125
1510174267975.532,203.61328125,41.015625,16.6015625,128.90625,-78.125
1510174267979.4382,136.23046875,51.26953125,20.5078125,104.98046875,-40.52734375
1510174267983.3445,-97.16796875,44.921875,23.92578125,-541.015625,-104.00390625
1510174267987.2507,-50.29296875,36.1328125,19.53125,-509.27734375,-102.5390625
1510174267991.157,169.921875,41.015625,15.625,114.2578125,-57.12890625
1510174267995.0632,181.640625,44.43359375,18.06640625,236.328125,-78.125
1510174267998.9695,-69.82421875,42.48046875,20.5078125,-467.28515625,-113.28125
1510174268002.8757,-127.44140625,40.52734375,20.01953125,-721.6796875,-157.71484375
1510174268019.949,37.109375,41.015625,15.13671875,-259.27734375,-129.39453125
1510174268023.8552,126.46484375,41.9921875,11.71875,78.61328125,-44.43359375
1510174268027.7615,-76.66015625,41.9921875,14.16015625,-348.14453125,-55.17578125
1510174268031.6677,-216.796875,44.43359375,17.578125,-685.546875,-127.44140625
1510174268035.574,-63.4765625,44.43359375,20.01953125,-290.52734375,-148.92578125
1510174268039.4802,86.42578125,43.45703125,22.4609375,169.43359375,-127.44140625
1510174268043.3865,-81.0546875,46.875,23.92578125,-147.94921875,-110.83984375
1510174268047.2927,-280.76171875,49.31640625,20.99609375,-710.9375,-144.04296875
1510174268051.199,-184.08203125,43.9453125,18.5546875,-493.1640625,-159.1796875
1510174268055.1052,22.94921875,42.48046875,24.4140625,86.42578125,-104.00390625
1510174268059.0115,-16.11328125,42.48046875,25.87890625,49.8046875,-80.078125
1510174268062.9177,-247.55859375,39.0625,27.83203125,-591.30859375,-132.8125
1510174268065.3252,-200.68359375,38.57421875,27.83203125,-640.13671875,-155.76171875
1510174268069.2314,12.6953125,38.57421875,21.97265625,-57.6171875,-90.8203125
1510174268073.1377,59.08203125,38.0859375,21.484375,214.35546875,-47.8515625
1510174268077.044,-172.8515625,41.9921875,25.390625,-372.55859375,-108.88671875
1510174268080.9502,-241.2109375,40.52734375,28.3203125,-666.50390625,-170.41015625
1510174268084.8564,-57.12890625,37.59765625,28.3203125,-186.5234375,-101.5625
1510174268088.7627,80.56640625,39.55078125,26.3671875,251.953125,-48.828125
1510174268092.669,-95.21484375,40.52734375,24.90234375,-171.38671875,-109.86328125
1510174268096.5752,-251.953125,34.1796875,26.3671875,-680.17578125,-183.10546875
1510174268100.4814,-117.1875,26.3671875,27.34375,-245.1171875,-179.19921875
1510174268104.3877,76.66015625,26.85546875,17.578125,427.24609375,-124.0234375
1510174268108.294,-25.390625,34.1796875,18.5546875,145.01953125,-117.67578125
1510174268110.3372,-255.859375,35.15625,25.390625,-522.94921875,-104.4921875
1510174268114.2434,-169.43359375,23.4375,19.53125,-448.2421875,-116.2109375
1510174268118.1497,40.52734375,19.04296875,13.18359375,117.1875,-90.33203125
1510174268122.056,20.99609375,22.4609375,15.625,194.3359375,-43.45703125
1510174268125.9622,-215.33203125,29.296875,22.4609375,-430.6640625,-74.21875
1510174268129.8684,-204.58984375,34.1796875,21.97265625,-483.88671875,-93.75
1510174268133.7747,-0.9765625,34.66796875,15.13671875,77.1484375,-81.54296875
1510174268137.681,65.91796875,37.109375,13.671875,358.88671875,-35.64453125
1510174268141.5872,-147.94921875,34.66796875,18.5546875,-204.58984375,-36.62109375
1510174268145.4934,-215.33203125,35.15625,17.578125,-557.12890625,-90.33203125
1510174268149.3997,-25.87890625,33.69140625,12.20703125,-30.76171875,-59.5703125
1510174268153.306,94.23828125,31.73828125,13.18359375,502.44140625,6.8359375
1510174268155.3687,-88.37890625,34.1796875,19.53125,95.703125,-15.625
1510174268159.275,-252.44140625,32.2265625,21.97265625,-441.89453125,-64.453125
1510174268163.1812,-105.95703125,35.15625,20.01953125,-154.296875,-31.73828125
1510174268167.0874,85.44921875,31.25,17.08984375,403.80859375,-8.30078125
1510174268170.9937,-15.13671875,25.390625,16.6015625,236.328125,-23.4375
1510174268174.9,-231.93359375,23.4375,19.04296875,-393.06640625,-29.296875
1510174268178.8062,-151.3671875,21.484375,15.13671875,-296.875,-18.5546875
1510174268182.7124,61.5234375,18.06640625,14.16015625,295.8984375,0.48828125
1510174268186.6187,46.875,15.13671875,20.5078125,324.21875,-42.96875
1510174268190.525,-187.01171875,19.04296875,18.5546875,-343.26171875,-77.1484375
1510174268194.4312,-178.22265625,16.11328125,19.04296875,-403.3203125,-71.2890625
1510174268198.3374,28.80859375,15.13671875,20.99609375,150.87890625,-59.08203125
1510174268200.4294,125.48828125,16.6015625,17.08984375,462.890625,-18.06640625
1510174268204.3357,-78.125,19.04296875,20.01953125,-76.171875,-14.6484375
1510174268208.242,-193.359375,20.01953125,20.5078125,-457.51953125,-35.64453125
1510174268212.1482,-36.62109375,11.71875,13.18359375,-47.36328125,-28.3203125
1510174268216.0544,132.32421875,6.8359375,11.23046875,458.0078125,7.8125
1510174268219.9607,-20.5078125,11.23046875,18.06640625,138.671875,18.5546875
1510174268223.867,-205.56640625,12.20703125,21.484375,-400.87890625,35.64453125
1510174268227.7732,-77.1484375,8.7890625,15.625,-167.48046875,15.625
1510174268231.6794,110.83984375,12.6953125,8.30078125,396.484375,3.90625
1510174268235.5857,47.36328125,20.5078125,10.25390625,373.53515625,57.6171875
1510174268239.492,-173.33984375,23.4375,15.13671875,-258.7890625,46.875
1510174268243.3982,-112.3046875,24.90234375,11.23046875,-262.20703125,18.5546875
1510174268244.952,92.7734375,23.4375,9.765625,352.05078125,33.69140625
1510174268248.8582,96.6796875,22.4609375,15.13671875,567.87109375,86.42578125
1510174268252.7644,-146.97265625,24.4140625,22.94921875,-66.89453125,58.59375
1510174268256.6707,-171.38671875,32.71484375,16.6015625,-318.359375,24.4140625
1510174268260.577,7.8125,36.62109375,11.23046875,184.08203125,88.37890625
1510174268264.4832,102.05078125,34.66796875,17.578125,570.3125,125.0
1510174268268.3894,-105.95703125,39.0625,25.87890625,69.82421875,88.8671875
1510174268272.2957,-230.95703125,41.9921875,25.87890625,-401.85546875,35.15625
1510174268276.202,-55.17578125,43.45703125,15.625,-25.87890625,68.84765625
1510174268280.1082,115.72265625,46.38671875,9.765625,506.8359375,80.56640625
1510174268284.0144,-24.90234375,44.921875,15.625,150.87890625,48.828125
1510174268287.9207,-209.9609375,43.45703125,23.4375,-475.5859375,37.109375
1510174268289.9846,-82.03125,45.41015625,26.3671875,-231.93359375,32.71484375
1510174268293.8909,64.94140625,43.45703125,25.87890625,409.66796875,49.8046875
1510174268297.797,8.7890625,43.9453125,25.87890625,368.1640625,91.796875
1510174268301.7034,-210.44921875,48.33984375,26.85546875,-328.125,64.94140625
1510174268305.6096,-194.82421875,48.33984375,26.85546875,-382.8125,20.5078125
1510174268309.5159,35.64453125,49.31640625,24.90234375,214.35546875,42.96875
1510174268313.422,83.49609375,50.29296875,23.92578125,466.30859375,19.53125
1510174268317.3284,-147.4609375,50.78125,26.3671875,-156.73828125,-12.20703125
1510174268321.2346,-188.96484375,53.22265625,27.34375,-398.92578125,-10.25390625
1510174268325.1409,-3.41796875,49.31640625,26.3671875,96.19140625,7.32421875
1510174268329.047,103.515625,44.43359375,25.87890625,471.19140625,42.48046875
1510174268332.9534,-75.68359375,48.828125,25.390625,7.8125,26.85546875
1510174268350.0276,-211.9140625,46.875,26.3671875,-440.91796875,-28.3203125
1510174268353.9338,-68.359375,41.50390625,30.2734375,-74.70703125,-14.16015625
1510174268357.84,111.328125,41.9921875,25.390625,452.63671875,38.0859375
1510174268361.7463,-26.85546875,37.59765625,22.94921875,209.47265625,24.90234375
1510174268365.6526,-252.44140625,32.71484375,26.85546875,-395.99609375,-17.578125
1510174268369.5588,-165.52734375,36.62109375,26.85546875,-251.46484375,-4.39453125
1510174268373.465,49.31640625,38.0859375,22.94921875,301.26953125,24.4140625
1510174268377.3713,13.18359375,38.57421875,22.94921875,332.03125,34.66796875
1510174268381.2776,-231.4453125,41.50390625,29.78515625,-250.9765625,11.23046875
1510174268385.1838,-204.58984375,39.55078125,26.85546875,-351.5625,-37.59765625
1510174268389.09,-7.32421875,33.69140625,20.01953125,173.828125,-11.23046875
1510174268392.9963,38.57421875,36.1328125,17.08984375,464.35546875,2.44140625
1510174268380.549,-190.4296875,40.52734375,23.92578125,-94.7265625,-44.921875
1510174268384.4553,-269.04296875,39.0625,23.4375,-439.453125,-47.8515625
1510174268388.3616,-95.21484375,40.0390625,17.08984375,1.46484375,-14.6484375
1510174268392.2678,26.85546875,44.43359375,15.625,464.35546875,-14.16015625
1510174268396.174,-138.671875,51.26953125,20.01953125,100.5859375,-18.5546875
1510174268400.0803,-290.0390625,56.15234375,22.4609375,-418.45703125,-27.34375
1510174268403.9866,-162.59765625,54.6875,19.53125,-159.1796875,5.859375
1510174268407.8928,12.20703125,50.29296875,17.08984375,395.99609375,31.73828125
1510174268411.799,-89.84375,50.29296875,20.01953125,216.30859375,3.90625
1510174268415.7053,-300.78125,53.7109375,25.390625,-441.40625,-27.34375
1510174268419.6116,-219.7265625,55.6640625,23.4375,-390.13671875,-14.16015625
1510174268423.5178,-19.53125,52.24609375,19.53125,228.515625,45.41015625
1510174268440.0706,-8.30078125,49.31640625,24.90234375,357.91015625,39.55078125
1510174268443.9768,-247.55859375,45.8984375,29.296875,-307.12890625,-12.20703125
1510174268447.883,-273.92578125,34.66796875,22.94921875,-454.58984375,-38.0859375
1510174268451.7893,-75.68359375,26.85546875,16.6015625,104.98046875,-4.8828125
1510174268455.6956,38.0859375,28.3203125,19.53125,435.05859375,32.2265625
1510174268459.6018,-172.8515625,29.78515625,25.390625,-101.5625,38.0859375
1510174268463.508,-299.31640625,29.296875,22.94921875,-484.375,-23.4375
1510174268467.4143,-125.9765625,26.3671875,17.578125,-39.0625,-11.71875
1510174268471.3206,36.1328125,22.4609375,17.578125,458.49609375,15.625
1510174268475.2268,-107.421875,20.99609375,22.4609375,64.453125,-8.30078125
1510174268479.133,-288.57421875,19.04296875,23.92578125,-459.47265625,14.6484375
1510174268483.0393,-159.1796875,18.06640625,21.97265625,-167.96875,14.16015625
1510174268485.104,37.109375,17.578125,18.06640625,381.8359375,11.23046875
1510174268489.0103,-32.2265625,23.4375,19.04296875,265.625,-6.8359375
1510174268492.9165,-246.09375,25.87890625,20.01953125,-349.609375,-32.71484375
1510174268496.8228,-200.1953125,25.390625,17.578125,-291.50390625,-31.25
1510174268500.729,-2.44140625,27.34375,15.13671875,273.4375,-23.92578125
1510174268504.6353,27.34375,27.83203125,20.5078125,416.50390625,-12.6953125
1510174268508.5415,-200.1953125,32.2265625,27.83203125,-198.2421875,-21.97265625
1510174268512.4478,-226.07421875,28.80859375,22.4609375,-389.16015625,-20.99609375
1510174268516.354,-15.625,19.53125,18.06640625,124.51171875,-15.625
1510174268520.2603,92.7734375,17.578125,15.13671875,498.53515625,-4.39453125
1510174268524.1665,-110.83984375,19.53125,19.53125,42.48046875,27.34375
1510174268528.0728,-238.76953125,16.6015625,25.390625,-368.1640625,16.11328125
1510174268545.1655,-86.42578125,15.13671875,20.01953125,-21.97265625,30.2734375
1510174268549.0718,82.03125,14.16015625,15.13671875,482.91015625,66.40625
1510174268552.978,-51.7578125,10.7421875,20.01953125,222.65625,54.6875
1510174268556.8843,-256.8359375,11.71875,26.85546875,-367.1875,17.578125
1510174268560.7905,-147.94921875,12.20703125,26.3671875,-181.15234375,27.34375
1510174268564.6968,61.03515625,8.30078125,22.94921875,399.90234375,37.109375
1510174268568.603,22.94921875,9.765625,22.4609375,355.95703125,49.31640625
1510174268572.5093,-204.1015625,10.7421875,28.3203125,-279.296875,53.7109375
1510174268576.4155,-165.0390625,5.37109375,30.76171875,-322.265625,5.859375
1510174268580.3218,36.1328125,7.32421875,23.92578125,245.1171875,29.296875
1510174268584.228,82.51953125,12.6953125,18.5546875,502.9296875,69.82421875
1510174268588.1343,-151.85546875,19.04296875,22.94921875,-119.140625,66.89453125
1510174268575.1863,-228.02734375,25.87890625,18.5546875,-423.828125,32.71484375
1510174268579.0925,-25.87890625,21.484375,10.25390625,85.9375,30.2734375
1510174268582.9988,102.5390625,16.11328125,10.25390625,523.4375,52.734375
1510174268586.905,-104.98046875,20.5078125,16.6015625,28.80859375,34.1796875
1510174268590.8113,-257.8125,24.4140625,22.4609375,-468.26171875,52.734375
1510174268594.7175,-117.67578125,23.4375,20.99609375,-122.0703125,77.63671875
1510174268598.6238,46.875,22.94921875,17.08984375,413.0859375,60.05859375
1510174268602.53,-64.453125,25.87890625,17.578125,163.0859375,27.83203125
1510174268606.4363,-267.08984375,25.390625,18.06640625,-424.31640625,23.4375
1510174268610.3425,-153.3203125,25.390625,15.625,-224.609375,82.51953125
1510174268614.2488,75.1953125,31.25,13.18359375,400.390625,111.328125
1510174268618.155,27.34375,27.34375,18.06640625,414.0625,10.25390625
1510174268620.2102,-196.77734375,27.34375,22.4609375,-249.0234375,-29.78515625
1510174268624.1165,-144.53125,28.3203125,14.6484375,-286.62109375,43.45703125
1510174268628.0227,71.2890625,19.53125,12.20703125,224.609375,54.6875
1510174268631.929,140.625,14.6484375,14.16015625,438.96484375,59.5703125
1510174268635.8352,-66.40625,19.53125,17.578125,-120.60546875,44.921875
1510174268639.7415,-155.2734375,20.5078125,19.53125,-425.29296875,56.640625
1510174268643.6477,2.44140625,13.671875,13.671875,0.9765625,64.453125
1510174268647.554,145.5078125,12.6953125,12.6953125,374.51171875,11.23046875
1510174268651.4602,-10.7421875,15.625,18.5546875,-15.625,39.55078125
1510174268655.3665,-165.0390625,12.6953125,19.53125,-453.61328125,68.359375
1510174268659.2727,-21.97265625,7.32421875,14.16015625,-149.4140625,37.59765625
1510174268663.179,157.71484375,6.8359375,9.765625,396.97265625,78.125
1510174268665.251,53.22265625,15.13671875,13.671875,189.94140625,94.23828125
1510174268669.1572,-156.73828125,17.08984375,16.6015625,-427.734375,29.78515625
1510174268673.0635,-79.1015625,14.16015625,14.16015625,-316.89453125,16.11328125
1510174268676.9697,119.62890625,13.671875,11.23046875,290.52734375,79.1015625
1510174268680.876,102.5390625,15.625,15.13671875,411.1328125,60.546875
1510174268684.7822,-140.13671875,14.6484375,21.97265625,-255.37109375,14.16015625
1510174268688.6885,-139.16015625,14.6484375,19.53125,-420.8984375,29.296875
1510174268692.5947,66.40625,18.06640625,14.16015625,113.76953125,70.80078125
1510174268696.501,158.69140625,19.53125,17.08984375,476.5625,104.4921875
1510174268700.4072,-53.22265625,20.01953125,26.85546875,-45.8984375,50.29296875
1510174268704.3135,-156.73828125,21.97265625,29.296875,-453.61328125,-13.671875
1510174268708.2197,24.4140625,25.390625,24.4140625,-16.6015625,12.6953125
1510174268710.2644,173.828125,25.390625,20.5078125,480.46875,47.8515625
1510174268714.1707,7.8125,21.484375,20.01953125,99.609375,41.015625
1510174268718.077,-170.41015625,19.53125,20.01953125,-457.03125,-0.9765625
1510174268721.9832,-55.6640625,19.53125,19.53125,-188.96484375,-4.8828125
1510174268725.8894,140.13671875,16.11328125,15.625,395.99609375,13.671875
1510174268729.7957,61.5234375,22.4609375,18.06640625,301.26953125,32.71484375
1510174268733.702,-171.38671875,30.76171875,24.4140625,-329.1015625,-17.578125
1510174268737.6082,-115.72265625,26.85546875,20.99609375,-253.90625,-31.73828125
1510174268741.5144,76.66015625,18.06640625,22.4609375,390.625,-19.53125
1510174268745.4207,88.8671875,16.6015625,25.87890625,529.296875,-56.640625
1510174268749.327,-134.27734375,18.5546875,27.34375,-111.81640625,-44.43359375
1510174268753.2332,-163.0859375,21.484375,23.92578125,-301.26953125,-28.80859375
1510174268770.305,32.71484375,24.90234375,22.94921875,241.69921875,-9.27734375
1510174268774.2112,124.51171875,22.94921875,23.4375,589.35546875,17.578125
1510174268778.1174,-98.6328125,20.01953125,25.390625,58.59375,24.90234375
1510174268782.0237,-216.796875,16.11328125,26.85546875,-351.07421875,-15.625
1510174268785.93,-57.12890625,14.6484375,20.99609375,42.48046875,29.78515625
1510174268789.8362,100.5859375,13.18359375,21.484375,534.66796875,72.265625
1510174268793.7424,-47.36328125,17.578125,27.83203125,204.1015625,14.16015625
1510174268797.6487,-235.83984375,22.94921875,24.90234375,-350.5859375,-20.99609375
1510174268801.555,-108.3984375,23.92578125,19.53125,-124.0234375,-21.97265625
1510174268805.4612,84.9609375,24.4140625,20.01953125,434.08203125,11.23046875
1510174268809.3674,21.97265625,27.34375,21.97265625,367.67578125,37.109375
1510174268813.2737,-200.1953125,26.3671875,26.85546875,-254.8828125,11.71875
1510174268815.126,-151.85546875,21.97265625,24.4140625,-263.671875,-9.765625
1510174268819.0322,55.6640625,20.99609375,16.6015625,282.2265625,-10.7421875
1510174268822.9385,98.14453125,20.99609375,17.08984375,485.83984375,3.90625
1510174268826.8447,-113.76953125,22.94921875,19.53125,-108.3984375,29.296875
1510174268830.751,-157.71484375,23.92578125,17.578125,-384.765625,6.8359375
1510174268834.6572,24.90234375,24.90234375,16.11328125,83.0078125,-6.8359375
1510174268838.5635,143.5546875,23.92578125,14.6484375,481.4453125,23.92578125
1510174268842.4697,-30.76171875,23.92578125,17.08984375,37.109375,30.2734375
1510174268846.376,-171.38671875,23.92578125,20.5078125,-398.92578125,1.46484375
1510174268850.2822,-28.3203125,22.4609375,20.5078125,-81.0546875,-15.13671875
1510174268854.1885,147.94921875,22.4609375,19.04296875,454.58984375,-15.13671875
1510174268858.0947,4.39453125,18.06640625,24.4140625,253.90625,-8.30078125
1510174268860.1636,-207.03125,20.99609375,28.3203125,-372.0703125,-24.90234375
1510174268864.0698,-106.93359375,25.390625,23.92578125,-217.28515625,-17.08984375
1510174268867.976,101.5625,22.94921875,19.04296875,383.30078125,2.44140625
1510174268871.8823,68.84765625,21.484375,20.5078125,385.25390625,-6.34765625
1510174268875.7886,-197.75390625,22.94921875,21.97265625,-288.0859375,-6.8359375
1510174268879.6948,-204.1015625,21.97265625,20.5078125,-373.53515625,-2.44140625
1510174268883.601,-12.20703125,21.97265625,17.578125,196.77734375,41.50390625
1510174268887.5073,25.87890625,25.390625,17.578125,472.16796875,81.0546875
1510174268891.4136,-214.35546875,26.85546875,24.90234375,-149.4140625,19.53125
1510174268895.3198,-295.41015625,36.62109375,22.4609375,-501.953125,4.8828125
1510174268899.226,-136.23046875,43.45703125,21.484375,20.01953125,54.6875
1510174268903.1323,-32.71484375,39.55078125,21.484375,471.19140625,57.12890625
1510174268905.19,-210.44921875,36.62109375,20.5078125,2.9296875,60.05859375
1510174268909.0962,-345.21484375,39.0625,18.5546875,-517.08984375,18.5546875
1510174268913.0024,-198.73046875,43.45703125,16.11328125,-174.31640625,19.53125
1510174268916.9087,-21.484375,39.55078125,13.18359375,404.296875,44.921875
1510174268920.815,-141.6015625,39.0625,12.6953125,192.3828125,30.2734375
1510174268924.7212,-356.4453125,36.62109375,18.06640625,-429.19921875,1.46484375
1510174268928.6274,-250.48828125,36.62109375,18.06640625,-305.17578125,-18.06640625
1510174268932.5337,-63.96484375,44.43359375,16.6015625,267.578125,5.37109375
1510174268936.44,-90.33203125,45.8984375,18.5546875,305.17578125,5.37109375
1510174268940.3462,-299.8046875,48.33984375,22.94921875,-333.0078125,-0.48828125
1510174268944.2524,-288.57421875,53.22265625,21.484375,-429.6875,7.32421875
1510174268948.1587,-77.1484375,54.19921875,13.671875,72.265625,18.5546875
1510174268950.2432,9.27734375,54.19921875,10.7421875,350.09765625,31.73828125
1510174268954.1494,-214.35546875,55.17578125,12.6953125,-176.7578125,20.5078125
1510174268958.0557,-314.453125,53.22265625,10.7421875,-517.578125,-3.90625
1510174268961.962,-129.39453125,51.7578125,9.765625,-85.9375,11.71875
1510174268965.8682,23.92578125,51.7578125,10.25390625,365.234375,54.6875
1510174268969.7744,-142.08984375,48.33984375,13.671875,-30.2734375,41.50390625
1510174268973.6807,-301.26953125,51.7578125,15.13671875,-558.59375,30.2734375
1510174268977.587,-164.0625,53.22265625,17.578125,-297.8515625,-10.25390625
1510174268981.4932,28.80859375,51.7578125,17.08984375,260.25390625,-23.92578125
1510174268985.3994,-60.546875,50.29296875,13.18359375,184.5703125,2.9296875
1510174268989.3057,-276.3671875,47.36328125,13.18359375,-431.640625,-46.875
1510174268993.212,-192.3828125,48.828125,10.25390625,-367.1875,-8.7890625
1510174268995.2542,17.578125,48.828125,9.27734375,236.81640625,38.0859375
1510174268999.1604,30.76171875,48.828125,12.6953125,379.39453125,17.578125
1510174269003.0667,-197.265625,43.9453125,17.578125,-266.6015625,-6.34765625
1510174269006.973,-211.9140625,41.015625,19.04296875,-451.66015625,-8.30078125
1510174269010.8792,-7.32421875,37.59765625,16.6015625,109.86328125,14.6484375
1510174269014.7854,83.984375,29.296875,14.16015625,460.44921875,26.3671875
1510174269018.6917,-117.1875,31.73828125,18.5546875,-65.4296875,24.4140625
1510174269022.598,-214.35546875,36.62109375,23.4375,-504.39453125,-29.78515625
1510174269026.5042,-41.015625,38.0859375,13.671875,-95.703125,-11.23046875
1510174269030.4104,120.1171875,33.203125,7.8125,486.81640625,49.8046875
1510174269034.3167,-23.92578125,24.4140625,16.11328125,155.2734375,21.97265625
1510174269038.223,-199.21875,24.4140625,19.04296875,-430.6640625,1.953125
1510174269040.286,-71.2890625,22.4609375,19.04296875,-195.3125,-12.6953125
1510174269044.1921,118.65234375,19.53125,21.484375,401.3671875,-1.953125
1510174269048.0984,59.5703125,31.73828125,24.90234375,332.03125,16.11328125
1510174269052.0046,-161.1328125,39.55078125,24.4140625,-333.49609375,-19.04296875
1510174269055.911,-101.5625,32.2265625,21.484375,-306.640625,-7.32421875
1510174269059.8171,112.79296875,23.92578125,17.08984375,286.1328125,32.2265625
1510174269063.7234,130.37109375,23.4375,17.578125,442.87109375,4.8828125
1510174269067.6296,-99.609375,26.85546875,21.97265625,-208.49609375,-25.390625
1510174269071.536,-139.16015625,27.83203125,20.99609375,-401.85546875,-5.859375
1510174269075.4421,53.7109375,24.4140625,21.97265625,145.5078125,20.99609375
1510174269079.3484,167.96875,21.484375,22.94921875,524.4140625,36.62109375
1510174269083.2546,-32.71484375,20.5078125,28.3203125,17.08984375,-9.765625
1510174269085.3198,-167.48046875,18.5546875,26.3671875,-429.6875,-11.71875
1510174269089.226,-14.16015625,16.6015625,21.484375,-53.7109375,15.13671875
1510174269093.1323,152.34375,18.5546875,20.01953125,451.171875,29.78515625
1510174269097.0386,24.4140625,20.99609375,22.4609375,169.43359375,46.875
1510174269100.9448,-168.9453125,19.53125,25.390625,-408.203125,14.6484375
1510174269104.851,-61.03515625,18.06640625,26.3671875,-215.8203125,6.8359375
1510174269108.7573,125.0,20.99609375,22.4609375,341.30859375,56.15234375
1510174269112.6636,82.51953125,31.25,35.15625,347.65625,70.80078125
1510174269116.5698,-152.83203125,27.34375,35.15625,-276.85546875,25.390625
1510174269120.476,-133.7890625,15.625,20.5078125,-356.93359375,-5.859375
1510174269124.3823,81.0546875,20.99609375,21.97265625,199.70703125,23.92578125
1510174269128.2886,129.8828125,24.90234375,20.99609375,467.28515625,58.10546875
1510174269145.3606,-89.84375,21.484375,24.4140625,-114.2578125,27.34375
1510174269149.2668,-154.296875,23.92578125,26.3671875,-426.7578125,-24.4140625
1510174269153.173,24.4140625,31.25,23.92578125,49.31640625,-2.44140625
1510174269157.0793,145.01953125,29.78515625,21.484375,494.62890625,24.90234375
1510174269160.9856,-42.48046875,25.390625,27.83203125,62.01171875,19.04296875
1510174269164.8918,-185.546875,26.3671875,27.34375,-453.125,-13.18359375
1510174269168.798,-41.9921875,37.109375,20.01953125,-146.484375,-15.13671875
1510174269172.7043,130.859375,45.8984375,20.01953125,432.12890625,2.44140625
1510174269176.6106,18.5546875,43.9453125,26.3671875,239.2578125,6.34765625
1510174269180.5168,-188.96484375,43.9453125,26.3671875,-416.50390625,-13.18359375
1510174269184.423,-91.796875,44.43359375,21.484375,-295.41015625,-4.8828125
1510174269188.3293,111.81640625,39.55078125,18.06640625,345.703125,32.71484375
1510174269189.8923,94.23828125,36.1328125,23.4375,402.34375,-10.7421875
1510174269193.7986,-136.23046875,32.71484375,29.78515625,-258.30078125,-34.1796875
1510174269197.7048,-125.9765625,32.2265625,25.390625,-364.2578125,-34.66796875
1510174269201.611,78.125,29.296875,20.01953125,198.73046875,-10.7421875
1510174269205.5173,139.6484375,25.87890625,20.5078125,498.046875,-0.9765625
1510174269209.4236,-80.56640625,29.296875,25.390625,-83.49609375,-33.203125
1510174269213.3298,-165.0390625,28.80859375,23.92578125,-451.66015625,-47.8515625
1510174269217.236,8.30078125,31.73828125,18.06640625,23.4375,-5.859375
1510174269221.1423,151.3671875,28.3203125,20.5078125,493.65234375,-0.9765625
1510174269225.0486,-24.90234375,26.3671875,23.92578125,36.62109375,-34.1796875
1510174269228.9548,-180.17578125,29.78515625,21.97265625,-478.515625,-44.43359375
1510174269232.861,-33.203125,24.4140625,20.01953125,-136.23046875,-51.7578125
1510174269234.9258,134.27734375,17.08984375,16.11328125,434.5703125,7.8125
1510174269238.832,32.71484375,20.01953125,18.06640625,267.08984375,58.10546875
1510174269242.7383,-178.7109375,23.92578125,22.4609375,-371.09375,28.3203125
1510174269246.6445,-92.7734375,20.5078125,20.5078125,-272.94921875,26.3671875
1510174269250.5508,109.375,18.5546875,22.94921875,309.08203125,21.97265625
1510174269254.457,94.7265625,17.578125,27.34375,407.71484375,11.23046875
1510174269258.3633,-141.6015625,15.625,28.80859375,-235.3515625,32.71484375
1510174269262.2695,-147.94921875,15.625,27.83203125,-397.94921875,12.6953125
1510174269266.1758,46.38671875,14.6484375,22.94921875,130.859375,-8.30078125
1510174269270.082,127.44140625,17.08984375,17.08984375,450.1953125,-4.39453125
1510174269273.9883,-73.2421875,22.94921875,18.06640625,-46.875,-23.92578125
1510174269277.8945,-182.6171875,20.99609375,23.4375,-431.15234375,-29.296875
1510174269279.9556,-16.6015625,22.4609375,21.484375,-28.80859375,22.94921875
1510174269283.8618,135.7421875,23.4375,19.04296875,483.88671875,42.96875
1510174269287.768,-19.04296875,18.06640625,27.83203125,139.6484375,18.5546875
1510174269291.6743,-206.0546875,15.13671875,32.2265625,-437.5,-20.99609375
1510174269295.5806,-89.84375,16.6015625,27.34375,-206.54296875,-17.578125
1510174269299.4868,102.5390625,14.16015625,20.99609375,378.41796875,41.015625
1510174269303.393,34.66796875,16.6015625,21.97265625,288.0859375,68.84765625
1510174269307.2993,-175.78125,17.08984375,26.85546875,-355.95703125,33.203125
1510174269311.2056,-105.95703125,12.6953125,24.90234375,-344.7265625,33.69140625
1510174269315.1118,106.4453125,20.01953125,18.5546875,235.83984375,69.82421875
1510174269319.018,119.62890625,21.484375,21.484375,453.61328125,91.796875
1510174269322.9243,-121.58203125,16.11328125,28.80859375,-187.98828125,55.17578125
1510174269325.4907,-156.73828125,10.7421875,27.83203125,-435.05859375,8.30078125
1510174269329.397,35.64453125,10.7421875,22.4609375,111.81640625,8.7890625
1510174269333.3032,143.5546875,6.34765625,20.99609375,505.37109375,-4.39453125
1510174269337.2095,-51.7578125,3.90625,26.3671875,-6.8359375,-10.25390625
1510174269341.1157,-177.734375,11.23046875,27.34375,-447.265625,-19.53125
1510174269345.022,-19.53125,15.13671875,20.01953125,-49.8046875,-9.765625
1510174269348.9282,134.27734375,14.6484375,18.5546875,471.6796875,16.11328125
1510174269352.8345,-8.7890625,11.23046875,25.87890625,157.71484375,24.90234375
1510174269356.7407,-186.5234375,24.90234375,23.4375,-445.3125,-6.34765625
1510174269360.647,-78.61328125,28.3203125,21.484375,-182.6171875,14.6484375
1510174269364.5532,99.12109375,4.8828125,34.1796875,430.6640625,15.625
1510174269368.4595,50.78125,-6.8359375,40.0390625,370.60546875,-23.4375
1510174269370.0405,-166.50390625,1.46484375,33.69140625,-284.66796875,-22.94921875
1510174269373.9468,-125.0,1.46484375,31.25,-289.0625,-8.30078125
1510174269377.853,71.77734375,-9.765625,33.69140625,295.41015625,8.30078125
1510174269381.7593,122.0703125,-14.16015625,38.57421875,522.94921875,-11.23046875
1510174269385.6655,-87.40234375,-6.8359375,39.55078125,-75.1953125,-39.0625
1510174269389.5718,-148.92578125,-2.44140625,30.76171875,-359.86328125,-38.0859375
1510174269393.478,30.2734375,-8.7890625,34.1796875,136.23046875,-48.33984375
1510174269397.3843,143.5546875,-8.30078125,37.109375,536.1328125,-64.94140625
1510174269401.2905,-38.57421875,-5.37109375,41.50390625,104.00390625,-1.953125
1510174269405.1968,-170.41015625,-10.25390625,46.875,-305.6640625,14.16015625
1510174269409.103,-20.01953125,-9.765625,44.43359375,9.765625,-16.11328125
1510174269413.0093,145.99609375,-3.41796875,38.0859375,527.83203125,-4.8828125
1510174269415.0518,26.85546875,2.9296875,33.203125,291.015625,-39.55078125
1510174269418.958,-166.50390625,2.9296875,37.59765625,-336.42578125,-80.56640625
1510174269422.8643,-58.59375,-1.953125,40.0390625,-188.96484375,-42.96875
1510174269426.7705,139.6484375,2.9296875,35.15625,406.25,10.7421875
1510174269430.6768,110.83984375,1.46484375,35.15625,436.5234375,8.7890625
1510174269434.583,-120.60546875,3.41796875,36.1328125,-227.5390625,5.859375
1510174269438.4893,-123.046875,9.765625,33.69140625,-349.12109375,-26.3671875
1510174269442.3955,74.21875,10.25390625,33.69140625,180.6640625,-23.92578125
1510174269446.3018,150.87890625,9.765625,33.69140625,520.01953125,-2.9296875
1510174269450.208,-62.01171875,13.671875,34.1796875,-33.69140625,-52.24609375
1510174269454.1143,-132.8125,14.16015625,36.62109375,-429.19921875,-27.83203125
1510174269458.0205,47.8515625,17.08984375,32.71484375,27.34375,16.6015625
1510174269460.0862,186.03515625,20.5078125,31.73828125,534.1796875,11.71875
1510174269463.9924,17.08984375,20.5078125,36.62109375,118.1640625,11.23046875
1510174269467.8987,-143.06640625,22.94921875,36.62109375,-424.31640625,-14.6484375
1510174269471.805,-1.953125,25.87890625,33.69140625,-113.76953125,-37.59765625
1510174269475.7112,171.38671875,24.90234375,31.73828125,474.609375,-13.18359375
1510174269479.6174,63.96484375,26.3671875,32.71484375,299.31640625,-6.34765625
1510174269483.5237,-147.4609375,26.3671875,33.203125,-402.34375,-52.24609375
1510174269487.43,-63.4765625,23.92578125,29.296875,-295.41015625,-22.94921875
1510174269491.3362,137.6953125,27.83203125,30.76171875,386.71875,26.3671875
1510174269495.2424,128.41796875,32.2265625,31.25,490.234375,11.71875
1510174269499.1487,-101.5625,36.1328125,28.3203125,-189.94140625,-2.44140625
1510174269503.055,-107.91015625,41.015625,26.3671875,-340.8203125,-15.625
1510174269505.6162,74.70703125,39.0625,27.34375,230.46875,1.953125
1510174269509.5225,146.97265625,37.109375,30.2734375,547.8515625,-8.7890625
1510174269513.4287,-49.31640625,35.15625,32.2265625,-4.39453125,-16.11328125
1510174269517.335,-138.671875,34.1796875,30.2734375,-360.3515625,6.34765625
1510174269521.2412,34.66796875,36.62109375,28.3203125,95.703125,28.3203125
1510174269525.1475,181.640625,34.66796875,29.78515625,584.9609375,22.4609375
1510174269529.0537,25.390625,37.59765625,31.25,191.89453125,27.34375
1510174269532.96,-142.08984375,40.52734375,29.78515625,-355.46875,42.96875
1510174269536.8662,-19.04296875,38.0859375,25.87890625,-94.23828125,39.0625
1510174269540.7725,153.80859375,42.96875,23.4375,470.703125,48.828125
1510174269544.6787,87.890625,52.24609375,26.85546875,376.46484375,56.15234375
1510174269548.585,-90.33203125,56.640625,29.78515625,-282.71484375,23.4375
1510174269565.16,-10.7421875,56.15234375,25.390625,-260.25390625,14.6484375
1510174269569.0662,188.96484375,56.640625,24.4140625,307.12890625,32.71484375
1510174269572.9724,216.796875,58.10546875,24.90234375,479.4921875,54.19921875
1510174269576.8787,7.32421875,61.03515625,25.87890625,-72.265625,39.55078125
1510174269580.785,-32.2265625,57.12890625,24.90234375,-265.13671875,2.44140625
1510174269584.6912,134.765625,54.6875,22.4609375,202.1484375,41.50390625
1510174269588.5974,237.79296875,59.5703125,23.92578125,539.55078125,79.58984375
1510174269592.5037,45.41015625,63.4765625,24.90234375,45.41015625,12.20703125
1510174269596.41,-82.03125,57.6171875,27.34375,-365.234375,-28.3203125
1510174269600.3162,71.2890625,49.31640625,28.80859375,-33.203125,-10.25390625
1510174269604.2224,233.88671875,51.26953125,26.85546875,486.81640625,0.9765625
1510174269608.1287,96.19140625,59.08203125,26.85546875,242.67578125,9.27734375
1510174269610.1917,-99.609375,55.6640625,25.390625,-377.44140625,1.953125
1510174269614.098,-6.34765625,49.31640625,22.94921875,-191.89453125,-24.4140625
1510174269618.0042,167.96875,46.875,19.53125,410.64453125,-22.4609375
1510174269621.9104,108.3984375,42.96875,24.4140625,385.25390625,7.32421875
1510174269625.8167,-104.00390625,42.48046875,31.25,-292.96875,-34.1796875
1510174269629.723,-75.1953125,44.43359375,27.83203125,-313.96484375,-41.015625
1510174269633.6292,102.5390625,46.38671875,21.484375,286.1328125,16.11328125
1510174269637.5354,149.90234375,44.921875,23.4375,534.1796875,4.39453125
1510174269641.4417,-73.73046875,35.15625,33.69140625,-92.28515625,-17.578125
1510174269645.348,-143.5546875,39.0625,30.76171875,-415.52734375,-28.80859375
1510174269649.2542,0.48828125,47.8515625,23.92578125,103.02734375,-37.109375
1510174269653.1604,113.28125,38.0859375,28.3203125,542.48046875,-23.4375
1510174269655.2239,-36.1328125,31.73828125,30.76171875,44.921875,-33.69140625
1510174269659.1301,-163.57421875,36.1328125,28.3203125,-423.828125,-40.0390625
1510174269663.0364,-29.78515625,36.1328125,27.83203125,-31.73828125,-14.16015625
1510174269666.9426,139.16015625,32.71484375,29.78515625,525.87890625,14.16015625
1510174269670.8489,46.875,31.73828125,34.1796875,283.69140625,-11.23046875
1510174269674.7551,-155.2734375,30.76171875,38.57421875,-332.51953125,-55.6640625
1510174269678.6614,-76.66015625,33.203125,34.1796875,-201.66015625,-87.890625
1510174269682.5676,101.07421875,32.71484375,29.296875,392.08984375,-94.7265625
1510174269686.4739,48.828125,29.78515625,34.66796875,385.7421875,-89.84375
1510174269690.3801,-186.03515625,31.73828125,30.76171875,-280.2734375,-78.61328125
1510174269694.2864,-178.22265625,31.73828125,19.04296875,-298.33984375,-88.37890625
1510174269698.1926,23.4375,23.92578125,19.53125,258.30078125,-77.63671875
1510174269700.257,106.4453125,22.4609375,25.87890625,521.97265625,-20.5078125
1510174269704.1633,-107.91015625,30.76171875,26.3671875,-50.78125,4.39453125
1510174269708.0696,-185.05859375,35.64453125,24.4140625,-388.671875,-20.5078125
1510174269711.9758,-13.671875,32.71484375,27.34375,71.2890625,-54.6875
1510174269715.882,104.00390625,33.203125,28.3203125,525.390625,-38.57421875
1510174269719.7883,-67.3828125,38.57421875,31.25,79.1015625,-45.41015625
1510174269723.6946,-224.609375,33.69140625,34.66796875,-426.7578125,-61.5234375
1510174269727.6008,-73.2421875,28.3203125,29.78515625,-85.44921875,-46.38671875
1510174269731.507,90.33203125,35.15625,20.99609375,436.03515625,-34.1796875
1510174269735.4133,-52.734375,42.48046875,22.4609375,270.01953125,-14.16015625
1510174269739.3196,-272.4609375,41.50390625,28.3203125,-320.3125,-48.828125
1510174269743.2258,-208.984375,41.9921875,24.4140625,-236.328125,-82.03125
1510174269745.2878,-40.52734375,39.55078125,19.53125,369.140625,-71.2890625
1510174269749.194,-53.7109375,36.1328125,18.5546875,487.79296875,-79.58984375
1510174269753.1003,-289.0625,32.71484375,24.90234375,-153.3203125,-94.23828125
1510174269757.0066,-299.31640625,29.78515625,25.390625,-330.078125,-69.82421875
1510174269760.9128,-101.07421875,35.64453125,18.06640625,203.125,5.37109375
1510174269764.819,-20.5078125,32.71484375,24.4140625,544.43359375,27.83203125
1510174269768.7253,-234.86328125,27.83203125,32.71484375,-10.25390625,-36.62109375
1510174269772.6316,-323.2421875,26.3671875,31.25,-410.15625,-89.35546875
1510174269776.5378,-136.71875,20.01953125,22.94921875,28.80859375,-73.73046875
1510174269780.444,9.765625,11.23046875,18.06640625,556.15234375,-27.34375
1510174269784.3503,-143.5546875,7.8125,22.94921875,165.52734375,-66.89453125
1510174269788.2566,-300.29296875,8.7890625,25.390625,-392.578125,-108.88671875
1510174269790.3198,-178.7109375,9.27734375,19.04296875,-115.72265625,-64.94140625
1510174269794.226,-14.16015625,5.859375,15.625,479.98046875,-33.203125
1510174269798.1323,-92.7734375,0.9765625,25.87890625,365.234375,-36.1328125
1510174269802.0386,-277.34375,-1.46484375,32.2265625,-299.8046875,-43.45703125
1510174269805.9448,-191.89453125,7.8125,21.484375,-233.88671875,-46.875
1510174269809.851,5.859375,16.11328125,12.6953125,390.13671875,8.7890625
1510174269813.7573,33.69140625,18.5546875,14.16015625,510.7421875,9.27734375
1510174269817.6636,-168.9453125,20.01953125,18.06640625,-177.24609375,-13.671875
1510174269821.5698,-188.96484375,23.92578125,14.16015625,-305.17578125,16.6015625
1510174269825.476,7.8125,26.85546875,10.25390625,247.55859375,62.5
1510174269829.3823,111.328125,23.4375,8.7890625,519.04296875,73.73046875
1510174269833.2886,-75.68359375,20.99609375,17.578125,-35.64453125,33.203125
1510174269835.3499,-169.921875,20.01953125,21.484375,-415.0390625,3.90625
1510174269839.256,-3.41796875,19.53125,17.08984375,-15.13671875,21.484375
1510174269843.1624,159.1796875,19.53125,16.6015625,469.23828125,34.1796875
1510174269847.0686,22.4609375,15.13671875,19.53125,127.44140625,20.5078125
1510174269850.9749,-150.390625,16.6015625,16.6015625,-461.42578125,28.3203125
1510174269854.881,-30.2734375,20.5078125,14.16015625,-221.19140625,46.38671875
1510174269858.7874,153.3203125,19.53125,16.6015625,307.6171875,35.64453125
1510174269862.6936,102.05078125,20.5078125,18.06640625,250.9765625,36.62109375
1510174269866.5999,-91.30859375,22.4609375,22.4609375,-337.890625,38.0859375
1510174269870.506,-52.24609375,24.4140625,20.99609375,-371.58203125,25.87890625
1510174269874.4124,128.41796875,18.5546875,17.578125,214.35546875,61.03515625
1510174269878.3186,164.0625,14.16015625,22.4609375,446.2890625,72.265625
1510174269895.3928,-68.359375,12.20703125,28.3203125,-186.03515625,51.7578125
1510174269899.299,-118.1640625,12.6953125,24.4140625,-478.515625,32.71484375
1510174269903.2053,52.734375,12.20703125,16.11328125,1.46484375,51.7578125
1510174269907.1116,151.3671875,10.25390625,15.625,437.98828125,68.84765625
1510174269911.0178,-29.296875,6.34765625,20.99609375,-40.0390625,49.31640625
1510174269914.924,-156.73828125,8.7890625,23.92578125,-520.5078125,-7.32421875
1510174269918.8303,-11.23046875,18.06640625,19.53125,-168.9453125,-47.36328125
1510174269922.7366,155.2734375,18.06640625,16.6015625,407.71484375,-1.953125
1510174269926.6428,37.109375,18.5546875,24.90234375,187.5,48.33984375
1510174269930.549,-157.71484375,20.5078125,27.83203125,-453.61328125,50.29296875
1510174269934.4553,-55.6640625,21.97265625,25.87890625,-282.71484375,10.7421875
1510174269938.3616,123.046875,23.92578125,24.4140625,304.19921875,-20.5078125
1510174269939.945,85.9375,22.94921875,24.90234375,284.1796875,-13.671875
1510174269943.8513,-138.671875,23.4375,26.85546875,-405.2734375,-16.11328125
1510174269947.7576,-123.046875,26.3671875,22.94921875,-434.08203125,-17.08984375
1510174269951.6638,62.01171875,28.3203125,19.53125,160.15625,45.8984375
1510174269955.57,92.7734375,33.203125,22.4609375,375.0,67.3828125
1510174269959.4763,-130.859375,37.59765625,24.4140625,-212.40234375,24.4140625
1510174269963.3826,-202.63671875,36.1328125,19.53125,-513.671875,0.48828125
1510174269967.2888,-27.34375,38.57421875,15.625,-18.5546875,70.3125
1510174269971.195,105.46875,41.015625,16.11328125,432.6171875,88.37890625
1510174269975.1013,-73.73046875,30.76171875,21.97265625,-67.3828125,18.06640625
1510174269979.0076,-215.33203125,24.4140625,19.53125,-530.76171875,-13.671875
1510174269982.9138,-71.77734375,25.87890625,16.6015625,-133.7890625,-1.46484375
1510174269984.9583,93.75,25.87890625,19.53125,380.37109375,48.33984375
1510174269988.8645,0.0,23.4375,21.484375,164.0625,54.6875
1510174269992.7708,-198.73046875,28.3203125,20.01953125,-399.4140625,31.73828125
1510174269996.677,-111.328125,33.69140625,17.08984375,-230.95703125,6.34765625
1510174270000.5833,101.07421875,30.2734375,16.11328125,316.40625,25.87890625
1510174270004.4895,84.47265625,24.4140625,19.04296875,354.98046875,61.5234375
1510174270008.3958,-152.34375,18.5546875,23.92578125,-270.5078125,9.27734375
1510174270012.302,-142.08984375,15.13671875,21.97265625,-327.63671875,-23.4375
1510174270016.2083,66.89453125,8.7890625,18.5546875,167.48046875,11.71875
1510174270020.1145,122.55859375,8.7890625,19.53125,448.73046875,55.6640625
1510174270024.0208,-95.703125,17.08984375,21.97265625,27.34375,56.15234375
1510174270027.927,-181.640625,15.13671875,21.484375,-323.2421875,-0.9765625
1510174270030.0083,-28.3203125,9.27734375,19.53125,20.01953125,-27.34375
1510174270033.9146,105.95703125,12.20703125,16.6015625,517.08984375,54.19921875
1510174270037.8208,-51.26953125,15.625,20.01953125,177.734375,71.2890625
1510174270041.727,-214.35546875,8.7890625,24.4140625,-321.77734375,28.80859375
1510174270045.6333,-91.796875,23.4375,14.16015625,-87.40234375,17.578125
1510174270049.5396,35.64453125,42.48046875,2.44140625,192.87109375,84.47265625
1510174270053.4458,-61.03515625,24.90234375,9.765625,19.04296875,85.9375
1510174270057.352,-247.0703125,16.6015625,15.13671875,-612.3046875,-58.10546875
1510174270061.2583,-160.15625,21.484375,12.20703125,-524.4140625,-84.47265625
1510174270065.1646,46.875,19.04296875,10.25390625,242.67578125,19.04296875
1510174270069.0708,30.2734375,11.71875,16.6015625,492.1875,68.84765625
1510174270072.977,-197.75390625,13.18359375,27.34375,-167.96875,9.27734375
1510174270075.524,-224.12109375,17.08984375,23.92578125,-398.4375,-3.90625
1510174270079.4302,-36.62109375,20.01953125,12.6953125,145.01953125,27.83203125
1510174270083.3364,60.546875,18.5546875,16.6015625,507.32421875,11.71875
1510174270087.2427,-133.30078125,14.16015625,24.4140625,-12.20703125,-18.5546875
1510174270091.149,-229.4921875,12.20703125,24.4140625,-351.07421875,-42.48046875
1510174270095.0552,-75.68359375,10.25390625,20.01953125,85.9375,8.30078125
1510174270098.9614,77.1484375,11.71875,17.08984375,535.15625,45.41015625
1510174270102.8677,-64.453125,12.20703125,21.484375,114.74609375,10.25390625
1510174270106.774,-235.3515625,13.671875,22.94921875,-469.7265625,-8.7890625
1510174270110.6802,-111.328125,8.7890625,19.53125,-133.7890625,20.5078125
1510174270114.5864,67.87109375,5.859375,20.5078125,457.03125,45.8984375
1510174270118.4927,4.8828125,11.71875,25.390625,314.94140625,53.22265625
1510174270121.0652,-207.03125,11.23046875,27.83203125,-355.46875,10.7421875
1510174270124.9714,-151.3671875,15.13671875,23.92578125,-328.125,3.90625
1510174270128.8777,42.48046875,15.625,20.01953125,260.25390625,2.9296875
1510174270132.784,71.77734375,18.06640625,21.97265625,441.89453125,4.8828125
1510174270136.6902,-135.7421875,25.390625,26.3671875,-165.52734375,48.33984375
1510174270140.5964,-163.57421875,25.87890625,28.80859375,-420.41015625,3.41796875
1510174270144.5027,22.94921875,24.4140625,26.85546875,58.10546875,-13.671875
1510174270148.409,135.7421875,25.390625,25.87890625,426.26953125,-20.01953125
1510174270152.3152,-43.45703125,28.3203125,25.87890625,-50.78125,24.90234375
1510174270156.2214,-174.31640625,24.90234375,27.34375,-468.75,6.34765625
1510174270160.1277,-29.296875,23.92578125,27.83203125,-133.7890625,-26.85546875
1510174270164.034,131.34765625,31.73828125,27.83203125,388.671875,20.99609375
1510174270165.084,2.9296875,36.1328125,32.2265625,124.51171875,18.5546875
1510174270168.9902,-190.4296875,29.78515625,32.2265625,-503.90625,-18.06640625
1510174270172.8965,-77.63671875,28.3203125,28.80859375,-325.1953125,-25.390625
1510174270176.8027,112.79296875,27.34375,25.390625,262.20703125,16.6015625
1510174270180.709,68.84765625,23.92578125,26.3671875,246.58203125,51.26953125
1510174270184.6152,-155.2734375,18.06640625,34.66796875,-367.67578125,0.9765625
1510174270188.5215,-119.140625,9.27734375,33.69140625,-347.16796875,-41.9921875
1510174270192.4277,92.28515625,14.16015625,26.85546875,223.6328125,-9.27734375
1510174270196.334,140.13671875,22.4609375,26.85546875,475.09765625,34.1796875
1510174270200.2402,-81.0546875,20.01953125,32.2265625,-100.09765625,24.90234375
1510174270204.1465,-138.18359375,17.578125,31.25,-413.57421875,13.671875
1510174270208.0527,41.015625,19.53125,23.92578125,89.35546875,38.57421875
1510174270210.116,158.69140625,23.92578125,23.4375,551.26953125,46.38671875
1510174270214.0222,-14.16015625,23.92578125,29.296875,73.73046875,27.34375
1510174270217.9285,-166.9921875,23.92578125,29.78515625,-441.40625,-9.765625
1510174270221.8347,-26.3671875,28.3203125,22.4609375,-81.0546875,1.46484375
1510174270225.741,144.53125,28.3203125,21.97265625,481.93359375,17.578125
1510174270229.6472,20.99609375,27.83203125,27.34375,274.4140625,39.0625
1510174270233.5535,-191.40625,29.296875,29.78515625,-394.53125,-16.6015625
1510174270237.4597,-106.4453125,29.78515625,25.87890625,-259.27734375,-47.8515625
1510174270241.366,83.49609375,25.390625,25.390625,414.55078125,21.484375
1510174270245.2722,54.6875,19.04296875,29.296875,461.42578125,7.32421875
1510174270249.1785,-169.921875,20.99609375,29.78515625,-218.26171875,-16.6015625
1510174270253.0847,-150.390625,24.4140625,23.92578125,-313.4765625,12.20703125
