timestamp,TP9,AF7,AF8,TP10,Right AUX

1510174043724.3804,-29.78515625,28.80859375,17.578125,-90.33203125,4.39453125
1510174043728.2866,61.03515625,30.2734375,16.11328125,354.00390625,22.94921875
1510174043732.1929,-0.48828125,32.2265625,17.578125,208.984375,13.18359375
1510174043736.099,-107.421875,31.73828125,16.6015625,-288.0859375,-20.01953125
1510174043740.0054,-46.875,30.2734375,15.13671875,-180.17578125,-8.7890625
1510174043743.9116,69.3359375,33.69140625,17.08984375,295.8984375,56.640625
1510174043747.8179,56.640625,35.64453125,18.5546875,352.5390625,59.5703125
1510174043751.724,-80.078125,35.64453125,16.11328125,-166.015625,-12.6953125
1510174043755.6304,-70.80078125,34.66796875,15.625,-260.7421875,-9.27734375
1510174043759.5366,45.41015625,31.25,16.11328125,160.15625,12.6953125
1510174043763.4429,86.9140625,33.203125,14.6484375,419.921875,44.921875
1510174043767.349,-39.55078125,36.62109375,18.06640625,20.5078125,53.7109375
1510174043799.4512,-94.7265625,35.64453125,20.01953125,-295.41015625,-7.8125
1510174043803.3574,18.06640625,33.203125,15.13671875,19.53125,-13.671875
1510174043807.2637,102.05078125,30.76171875,11.71875,402.34375,9.765625
1510174043811.17,-0.48828125,31.73828125,12.6953125,137.6953125,4.39453125
1510174043815.0762,-102.5390625,31.25,11.71875,-296.38671875,-19.04296875
1510174043818.9824,-21.484375,29.296875,11.71875,-125.48828125,-52.734375
1510174043822.8887,84.9609375,30.76171875,11.71875,321.2890625,-27.34375
1510174043826.795,25.87890625,31.25,15.13671875,285.15625,7.32421875
1510174043830.7012,-104.00390625,30.76171875,19.53125,-217.28515625,-52.734375
1510174043834.6074,-54.6875,29.296875,17.578125,-228.02734375,-91.796875
1510174043838.5137,61.03515625,29.78515625,13.18359375,240.234375,6.8359375
1510174043842.42,63.96484375,30.76171875,11.23046875,402.83203125,36.1328125
1510174043829.452,-74.21875,31.73828125,15.625,-102.05078125,10.25390625
1510174043833.3582,-85.9375,32.71484375,18.06640625,-299.31640625,-8.30078125
1510174043837.2644,23.4375,28.3203125,14.16015625,119.62890625,11.71875
1510174043841.1707,76.66015625,26.85546875,9.27734375,427.734375,49.8046875
1510174043845.077,-37.109375,31.25,7.8125,39.55078125,32.71484375
1510174043848.9832,-110.3515625,31.73828125,10.7421875,-328.61328125,-14.6484375
1510174043852.8894,-15.13671875,30.2734375,8.30078125,-55.17578125,-28.3203125
1510174043856.7957,78.61328125,31.73828125,12.20703125,381.34765625,11.23046875
1510174043860.702,-13.18359375,32.71484375,16.6015625,175.78125,1.953125
1510174043864.6082,-126.46484375,29.78515625,35.64453125,-293.9453125,12.6953125
1510174043868.5144,-45.8984375,28.3203125,49.8046875,-150.87890625,24.4140625
1510174043872.4207,69.82421875,29.78515625,34.66796875,320.3125,39.0625
1510174043874.484,31.73828125,27.83203125,33.69140625,305.17578125,40.52734375
1510174043878.3901,-97.16796875,23.4375,38.57421875,-225.5859375,-20.5078125
1510174043882.2964,-58.59375,30.76171875,30.76171875,-242.67578125,-8.30078125
1510174043886.2026,48.33984375,40.0390625,17.578125,213.37890625,67.3828125
1510174043890.109,65.91796875,42.96875,18.06640625,378.41796875,50.78125
1510174043894.0151,-62.98828125,46.875,16.11328125,-102.5390625,-2.9296875
1510174043897.9214,-96.19140625,48.33984375,6.8359375,-318.359375,5.37109375
1510174043901.8276,17.08984375,45.41015625,1.953125,63.4765625,-14.6484375
1510174043905.734,85.44921875,43.45703125,2.44140625,383.30078125,-16.6015625
1510174043909.6401,-32.2265625,47.36328125,3.90625,28.80859375,12.6953125
1510174043913.5464,-109.375,46.38671875,3.41796875,-323.73046875,-2.44140625
1510174043917.4526,-14.6484375,43.9453125,5.859375,-57.6171875,-34.66796875
1510174043919.5566,72.75390625,44.43359375,4.8828125,362.3046875,57.6171875
1510174043923.463,-6.34765625,41.9921875,15.13671875,201.66015625,95.703125
1510174043927.3691,-125.9765625,41.9921875,30.2734375,-281.73828125,10.25390625
1510174043931.2754,-59.08203125,42.48046875,23.4375,-192.3828125,-3.41796875
1510174043935.1816,56.15234375,40.52734375,13.671875,272.94921875,59.5703125
1510174043939.088,38.0859375,37.59765625,13.18359375,324.21875,62.5
1510174043942.9941,-94.7265625,38.57421875,9.765625,-191.89453125,25.87890625
1510174043946.9004,-73.73046875,40.0390625,5.37109375,-282.71484375,-19.04296875
1510174043950.8066,43.45703125,56.640625,4.8828125,138.18359375,-41.9921875
1510174043954.713,75.68359375,65.91796875,0.48828125,389.16015625,29.78515625
1510174043958.6191,-55.17578125,50.78125,0.48828125,-22.4609375,32.2265625
1510174043962.5254,-98.14453125,46.38671875,2.9296875,-316.40625,-2.9296875
1510174043964.5872,15.13671875,48.33984375,1.953125,20.99609375,15.625
1510174043968.4934,90.8203125,42.96875,0.9765625,396.97265625,27.83203125
1510174043972.3997,-17.578125,38.57421875,8.30078125,116.2109375,22.94921875
1510174043976.306,-111.81640625,39.0625,9.765625,-318.359375,28.80859375
1510174043980.2122,-29.78515625,35.64453125,5.859375,-112.3046875,23.4375
1510174043984.1184,61.5234375,31.73828125,4.39453125,349.609375,17.578125
1510174043988.0247,-5.37109375,33.203125,3.90625,238.28125,44.921875
1510174043991.931,-133.30078125,36.62109375,7.8125,-282.71484375,-14.6484375
1510174043995.8372,-75.1953125,36.1328125,10.7421875,-244.62890625,-29.296875
1510174043999.7434,45.8984375,33.69140625,6.34765625,269.04296875,47.8515625
1510174044003.6497,33.203125,30.76171875,7.8125,378.90625,41.9921875
1510174044007.556,-102.5390625,33.69140625,12.20703125,-153.80859375,26.85546875
1510174044009.6113,-95.21484375,35.15625,10.25390625,-295.8984375,31.25
1510174044013.5176,20.5078125,37.109375,8.30078125,138.18359375,49.8046875
1510174044017.4238,62.5,38.0859375,7.8125,406.25,73.73046875
1510174044021.33,-51.26953125,35.15625,11.23046875,-22.94921875,34.66796875
1510174044025.2363,-93.75,36.62109375,10.25390625,-330.078125,-21.484375
1510174044029.1426,4.8828125,37.109375,6.8359375,14.16015625,8.7890625
1510174044033.0488,83.49609375,37.109375,6.34765625,400.87890625,42.96875
1510174044036.955,-9.27734375,41.015625,7.32421875,103.515625,-5.859375
1510174044040.8613,-107.421875,39.0625,7.8125,-317.87109375,-10.25390625
1510174044044.7676,-40.52734375,35.15625,4.8828125,-107.91015625,-17.08984375
1510174044048.6738,53.7109375,40.0390625,4.39453125,327.1484375,19.04296875
1510174044052.58,13.671875,42.96875,9.27734375,267.08984375,56.15234375
1510174044054.6953,-122.55859375,38.0859375,12.20703125,-240.72265625,13.671875
1510174044058.6016,-81.54296875,33.69140625,15.625,-232.91015625,-25.390625
1510174044062.5078,37.109375,37.109375,13.18359375,227.05078125,-10.25390625
1510174044066.414,32.71484375,42.48046875,3.41796875,370.1171875,38.57421875
1510174044070.3203,-96.6796875,44.921875,3.90625,-115.234375,12.20703125
1510174044074.2266,-101.07421875,38.0859375,8.7890625,-308.10546875,1.46484375
1510174044078.1328,12.20703125,34.1796875,9.765625,82.51953125,16.6015625
1510174044082.039,70.80078125,34.66796875,7.8125,373.046875,8.7890625
1510174044085.9453,-42.96875,32.2265625,8.30078125,21.97265625,13.671875
1510174044089.8516,-110.3515625,32.71484375,8.7890625,-318.84765625,-2.44140625
1510174044093.7578,-14.16015625,35.64453125,4.8828125,-43.45703125,-22.4609375
1510174044097.664,71.2890625,34.66796875,1.953125,379.39453125,22.4609375
1510174044099.3662,-7.8125,34.1796875,4.8828125,185.05859375,79.1015625
1510174044103.2725,-110.3515625,37.109375,8.7890625,-279.296875,1.953125
1510174044107.1787,-36.62109375,35.64453125,6.8359375,-157.71484375,-11.71875
1510174044111.085,69.82421875,30.2734375,4.8828125,328.125,41.50390625
1510174044114.9912,36.1328125,31.25,5.859375,347.65625,33.203125
1510174044118.8975,-97.16796875,34.66796875,8.7890625,-168.9453125,13.671875
1510174044122.8037,-71.2890625,34.1796875,6.8359375,-236.81640625,16.6015625
1510174044126.71,39.0625,34.66796875,2.44140625,213.37890625,29.78515625
1510174044130.6162,49.8046875,37.109375,1.46484375,433.10546875,51.26953125
1510174044134.5225,-85.44921875,37.109375,5.859375,-47.36328125,28.80859375
1510174044138.4287,-118.1640625,31.25,5.859375,-303.22265625,-21.484375
1510174044142.335,-10.7421875,29.296875,2.9296875,91.30859375,-1.953125
1510174044159.407,55.17578125,30.76171875,3.41796875,450.1953125,62.98828125
1510174044163.3132,-53.7109375,27.83203125,4.39453125,89.84375,77.63671875
1510174044167.2195,-123.53515625,28.80859375,5.37109375,-299.31640625,15.625
1510174044171.1257,-28.3203125,30.76171875,7.32421875,-28.80859375,10.25390625
1510174044175.032,68.84765625,28.3203125,8.30078125,412.109375,20.5078125
1510174044178.9382,8.30078125,31.73828125,10.25390625,234.375,26.85546875
1510174044182.8445,-99.12109375,37.109375,14.6484375,-257.8125,42.96875
1510174044186.7507,-34.66796875,34.1796875,12.6953125,-132.32421875,32.2265625
1510174044190.657,72.75390625,30.2734375,11.23046875,351.5625,34.66796875
1510174044194.5632,52.734375,32.2265625,14.16015625,358.3984375,41.015625
1510174044198.4695,-79.58984375,46.875,15.13671875,-176.26953125,3.90625
1510174044202.3757,-63.4765625,61.03515625,13.671875,-241.69921875,-36.62109375
1510174044204.4414,45.8984375,48.828125,11.71875,200.1953125,-7.32421875
1510174044208.3477,76.66015625,35.64453125,11.23046875,418.45703125,-4.39453125
1510174044212.254,-46.875,32.71484375,11.23046875,-24.90234375,-0.9765625
1510174044216.1602,-92.7734375,31.25,12.6953125,-301.7578125,-4.39453125
1510174044220.0664,8.7890625,30.76171875,15.13671875,34.1796875,0.48828125
1510174044223.9727,81.54296875,31.25,13.671875,401.3671875,24.90234375
1510174044227.879,-20.99609375,32.2265625,13.18359375,93.26171875,12.6953125
1510174044231.7852,-107.91015625,37.59765625,13.671875,-316.89453125,7.32421875
1510174044235.6914,-21.97265625,35.15625,13.671875,-93.75,-9.765625
1510174044239.5977,68.359375,32.71484375,11.71875,324.21875,2.9296875
1510174044243.504,5.859375,36.62109375,11.71875,232.421875,35.15625
1510174044247.4102,-111.81640625,37.59765625,14.16015625,-246.09375,0.9765625
1510174044264.482,-56.15234375,34.66796875,12.6953125,-211.42578125,2.9296875
1510174044268.3882,58.59375,31.73828125,8.30078125,245.60546875,11.23046875
1510174044272.2944,55.6640625,34.66796875,5.859375,351.07421875,17.08984375
1510174044276.2007,-77.1484375,39.55078125,7.32421875,-131.8359375,24.90234375
1510174044280.107,-72.75390625,38.57421875,7.8125,-280.76171875,-2.44140625
1510174044284.0132,39.55078125,38.57421875,6.34765625,124.51171875,20.99609375
1510174044287.9194,78.61328125,41.50390625,4.39453125,400.390625,44.921875
1510174044291.8257,-42.48046875,38.57421875,4.39453125,6.8359375,53.22265625
1510174044295.732,-97.65625,37.59765625,3.41796875,-334.9609375,36.62109375
1510174044299.6382,4.39453125,40.0390625,-0.48828125,-35.15625,23.92578125
1510174044303.5444,86.42578125,38.0859375,-0.48828125,405.76171875,57.6171875
1510174044307.4507,-12.6953125,34.1796875,5.37109375,151.85546875,36.62109375
1510174044294.504,-112.3046875,34.1796875,11.71875,-303.22265625,-2.9296875
1510174044298.4102,-32.71484375,32.71484375,12.20703125,-117.1875,-19.53125
1510174044302.3164,72.265625,29.296875,7.32421875,339.84375,0.48828125
1510174044306.2227,24.90234375,31.25,8.7890625,279.296875,26.85546875
1510174044310.129,-106.4453125,34.66796875,13.18359375,-239.2578125,4.39453125
1510174044314.0352,-59.5703125,34.1796875,8.30078125,-238.28125,-22.4609375
1510174044317.9414,59.5703125,34.1796875,5.37109375,233.3984375,39.55078125
1510174044321.8477,56.15234375,35.15625,3.41796875,375.0,38.0859375
1510174044325.754,-85.44921875,32.2265625,4.8828125,-117.1875,12.6953125
1510174044329.6602,-96.19140625,31.25,8.30078125,-299.31640625,37.109375
1510174044333.5664,18.06640625,30.76171875,6.8359375,103.02734375,17.08984375
1510174044337.4727,70.3125,28.80859375,6.8359375,407.2265625,47.36328125
1510174044339.5352,-42.48046875,28.3203125,6.34765625,2.9296875,45.8984375
1510174044343.4414,-104.98046875,28.80859375,2.44140625,-329.58984375,-21.484375
1510174044347.3477,-6.34765625,28.3203125,-0.48828125,-17.08984375,-21.484375
1510174044351.254,83.49609375,28.80859375,-4.39453125,387.6953125,44.43359375
1510174044355.1602,-3.41796875,30.2734375,-3.41796875,178.22265625,38.57421875
1510174044359.0664,-107.91015625,27.34375,0.9765625,-292.48046875,1.46484375
1510174044362.9727,-33.69140625,31.25,0.9765625,-165.0390625,26.3671875
1510174044366.879,76.171875,37.59765625,0.9765625,291.50390625,13.18359375
1510174044370.7852,41.9921875,36.62109375,2.44140625,295.8984375,30.2734375
1510174044374.6914,-105.95703125,31.25,10.25390625,-187.01171875,28.80859375
1510174044378.5977,-85.44921875,23.92578125,10.7421875,-237.3046875,-13.18359375
1510174044382.504,35.64453125,19.04296875,7.32421875,201.171875,8.7890625
1510174044384.5684,57.6171875,18.06640625,10.25390625,395.99609375,8.7890625
1510174044388.4746,-68.84765625,18.5546875,13.18359375,-56.640625,-10.25390625
1510174044392.3809,-91.30859375,19.53125,15.625,-282.71484375,-8.7890625
1510174044396.287,17.578125,18.5546875,12.6953125,80.56640625,-22.4609375
1510174044400.1934,82.51953125,17.578125,3.90625,417.48046875,1.46484375
1510174044404.0996,-21.97265625,22.4609375,5.37109375,88.37890625,42.48046875
1510174044408.0059,-96.19140625,24.4140625,8.30078125,-302.24609375,-14.6484375
1510174044411.912,-9.765625,23.92578125,7.32421875,-79.1015625,-68.84765625
1510174044415.8184,86.42578125,22.94921875,6.34765625,381.8359375,-26.3671875
1510174044419.7246,14.16015625,22.94921875,7.32421875,263.18359375,13.18359375
1510174044423.6309,-104.98046875,24.4140625,9.27734375,-246.58203125,12.6953125
1510174044427.537,-41.9921875,22.4609375,8.7890625,-158.203125,39.0625
1510174044429.5989,71.77734375,21.97265625,1.953125,319.3359375,60.546875
1510174044433.5051,58.10546875,24.90234375,3.41796875,379.8828125,74.70703125
1510174044437.4114,-76.171875,24.4140625,5.859375,-156.73828125,42.48046875
1510174044441.3176,-60.05859375,22.4609375,2.9296875,-268.06640625,-17.578125
1510174044445.2239,53.7109375,19.53125,1.953125,196.77734375,-4.39453125
1510174044449.1301,83.0078125,20.99609375,-0.9765625,432.6171875,28.80859375
1510174044453.0364,-54.6875,22.94921875,-1.953125,-45.8984375,5.37109375
1510174044456.9426,-95.703125,23.4375,-3.41796875,-349.609375,-34.66796875
1510174044460.8489,20.5078125,28.80859375,-4.39453125,43.45703125,-14.16015625
1510174044464.7551,87.890625,27.83203125,-7.32421875,440.91796875,42.48046875
1510174044468.6614,-14.16015625,27.34375,-6.8359375,118.1640625,56.640625
1510174044472.5676,-101.5625,30.2734375,-8.30078125,-304.6875,23.92578125
1510174044474.6328,-18.5546875,26.3671875,-10.25390625,-88.8671875,3.41796875
1510174044478.539,76.66015625,20.01953125,-7.8125,345.703125,25.87890625
1510174044482.4453,17.578125,20.99609375,-7.32421875,229.4921875,18.5546875
1510174044486.3516,-102.5390625,25.390625,-4.8828125,-254.8828125,-12.6953125
1510174044490.2578,-56.15234375,23.4375,-4.8828125,-199.70703125,-6.8359375
1510174044494.164,56.640625,19.04296875,-8.30078125,246.09375,-23.4375
1510174044498.0703,54.19921875,17.08984375,-7.32421875,328.61328125,-20.5078125
1510174044501.9766,-78.61328125,19.53125,-7.8125,-160.64453125,-1.46484375
1510174044505.8828,-75.1953125,23.4375,-8.30078125,-276.3671875,7.8125
1510174044509.789,41.9921875,23.92578125,-6.34765625,135.7421875,-18.06640625
1510174044513.6953,82.03125,19.53125,-7.32421875,399.90234375,-0.48828125
1510174044517.6016,-43.45703125,18.06640625,-4.8828125,-8.7890625,21.484375
1510174044534.6736,-91.796875,19.53125,0.48828125,-319.3359375,-11.71875
1510174044538.5798,1.953125,17.578125,2.9296875,-9.765625,-36.1328125
1510174044542.486,76.66015625,16.11328125,-0.48828125,374.51171875,9.27734375
1510174044546.3923,-9.765625,18.06640625,3.41796875,130.859375,31.73828125
1510174044550.2986,-111.328125,15.625,6.8359375,-312.5,-25.87890625
1510174044554.2048,-39.0625,12.20703125,4.8828125,-146.97265625,-35.64453125
1510174044558.111,62.01171875,10.25390625,3.41796875,301.26953125,24.90234375
1510174044562.0173,21.97265625,13.671875,1.46484375,276.3671875,26.3671875
1510174044565.9236,-99.12109375,17.578125,2.44140625,-219.7265625,-3.90625
1510174044569.8298,-54.6875,16.6015625,0.0,-239.74609375,7.32421875
1510174044573.736,60.05859375,15.625,-4.8828125,214.84375,24.4140625
1510174044577.6423,66.40625,16.6015625,-2.9296875,377.44140625,50.29296875
1510174044580.206,-72.265625,17.08984375,1.953125,-111.81640625,-15.13671875
1510174044584.1123,-86.9140625,12.20703125,0.9765625,-307.12890625,-69.3359375
1510174044588.0186,33.69140625,10.7421875,0.48828125,111.328125,-5.37109375
1510174044591.9248,83.0078125,35.15625,-4.8828125,416.9921875,47.36328125
1510174044595.831,-53.22265625,43.9453125,-4.39453125,24.4140625,24.4140625
1510174044599.7373,-121.58203125,30.76171875,-0.9765625,-334.9609375,4.39453125
1510174044603.6436,-23.92578125,28.80859375,-2.44140625,-45.8984375,9.765625
1510174044607.5498,64.453125,26.3671875,-5.37109375,368.1640625,14.6484375
1510174044611.456,-19.53125,25.390625,-3.41796875,158.69140625,-8.30078125
1510174044615.3623,-129.8828125,24.90234375,0.9765625,-324.70703125,-44.43359375
1510174044619.2686,-48.33984375,24.4140625,-3.90625,-178.7109375,-47.8515625
1510174044623.1748,57.12890625,21.97265625,-8.7890625,314.453125,-20.99609375
1510174044624.2375,21.484375,20.5078125,-6.8359375,303.7109375,13.18359375
1510174044628.1438,-109.86328125,20.5078125,-6.34765625,-209.47265625,5.859375
1510174044632.05,-81.54296875,19.53125,-10.25390625,-250.48828125,-24.90234375
1510174044635.9563,36.62109375,20.5078125,-12.6953125,187.98828125,-36.1328125
1510174044639.8625,58.10546875,22.94921875,-12.6953125,373.53515625,4.39453125
1510174044643.7688,-75.1953125,23.4375,-8.7890625,-83.49609375,9.765625
1510174044647.675,-105.95703125,22.4609375,-8.7890625,-317.3828125,-8.30078125
1510174044651.5813,0.0,21.484375,-11.71875,64.94140625,15.625
1510174044655.4875,49.31640625,20.5078125,-9.765625,380.859375,0.9765625
1510174044659.3938,-59.08203125,23.4375,-7.8125,19.53125,-12.6953125
1510174044663.3,-122.0703125,21.97265625,-9.27734375,-315.91796875,3.41796875
1510174044667.2063,-26.3671875,21.97265625,-7.8125,-56.640625,-8.30078125
1510174044669.289,70.80078125,26.3671875,-5.37109375,355.95703125,8.30078125
1510174044673.1953,6.34765625,31.25,-1.46484375,202.1484375,23.4375
1510174044677.1016,-104.4921875,31.25,6.34765625,-275.390625,20.5078125
1510174044681.0078,-40.52734375,27.34375,6.8359375,-179.6875,3.41796875
1510174044684.914,66.40625,26.85546875,5.37109375,272.94921875,31.25
1510174044688.8203,46.875,31.25,3.90625,324.70703125,67.3828125
1510174044692.7266,-84.9609375,36.1328125,0.9765625,-184.5703125,33.69140625
1510174044696.6328,-76.171875,34.66796875,2.44140625,-279.296875,-4.8828125
1510174044700.539,39.55078125,31.73828125,1.46484375,135.7421875,18.5546875
1510174044704.4453,74.21875,35.64453125,0.0,381.8359375,43.9453125
1510174044708.3516,-51.7578125,40.0390625,8.30078125,-11.23046875,25.87890625
1510174044712.2578,-98.14453125,36.1328125,9.765625,-309.5703125,-19.53125
1510174044714.3008,1.953125,34.1796875,6.8359375,14.6484375,-47.8515625
1510174044718.207,79.58984375,37.109375,5.859375,399.90234375,-2.44140625
1510174044722.1133,-19.04296875,38.57421875,4.8828125,119.140625,5.37109375
1510174044726.0195,-108.88671875,38.57421875,5.37109375,-309.5703125,-15.625
1510174044729.9258,-23.4375,38.57421875,5.859375,-107.421875,-3.90625
1510174044733.832,78.61328125,36.62109375,5.37109375,346.6796875,25.390625
1510174044737.7383,20.5078125,39.55078125,6.34765625,247.55859375,20.99609375
1510174044741.6445,-100.09765625,42.48046875,9.765625,-259.765625,20.5078125
1510174044745.5508,-48.828125,38.57421875,8.7890625,-219.7265625,23.4375
1510174044749.457,56.15234375,32.71484375,7.8125,259.765625,6.34765625
1510174044753.3633,48.828125,30.76171875,8.7890625,375.48828125,9.27734375
1510174044757.2695,-83.0078125,30.2734375,10.25390625,-132.32421875,-27.83203125
1510174044759.3535,-81.0546875,25.87890625,7.8125,-286.62109375,-43.45703125
1510174044763.2598,35.15625,26.3671875,2.9296875,148.4375,26.85546875
1510174044767.166,77.1484375,27.34375,2.44140625,409.1796875,21.484375
1510174044771.0723,-48.33984375,24.90234375,3.41796875,-13.18359375,3.41796875
1510174044774.9785,-103.515625,24.4140625,2.9296875,-326.171875,-0.9765625
1510174044778.8848,-0.48828125,21.97265625,0.9765625,0.9765625,12.20703125
1510174044782.791,80.56640625,20.01953125,-0.9765625,396.484375,62.01171875
1510174044786.6973,-8.7890625,22.4609375,2.9296875,110.83984375,-6.34765625
1510174044790.6035,-108.3984375,24.4140625,6.8359375,-310.546875,-34.1796875
1510174044794.5098,-28.3203125,22.94921875,7.8125,-90.33203125,-21.484375
1510174044798.416,77.63671875,25.87890625,7.32421875,343.26171875,17.08984375
1510174044802.3223,26.3671875,31.73828125,7.32421875,285.64453125,66.40625
1510174044804.367,-98.14453125,34.66796875,9.27734375,-220.703125,36.62109375
1510174044808.2732,-57.12890625,29.296875,9.27734375,-238.28125,0.0
1510174044812.1794,48.828125,25.87890625,3.90625,201.66015625,8.7890625
1510174044816.0857,46.875,40.0390625,4.39453125,354.00390625,36.1328125
1510174044819.992,-85.44921875,45.8984375,11.23046875,-114.2578125,-6.34765625
1510174044823.8982,-101.5625,32.71484375,14.6484375,-312.98828125,-38.57421875
1510174044827.8044,0.9765625,24.4140625,11.71875,75.1953125,-16.6015625
1510174044831.7107,52.24609375,23.4375,7.8125,391.6015625,11.71875
1510174044835.617,-55.6640625,24.4140625,11.71875,45.8984375,-3.90625
1510174044839.5232,-114.2578125,25.87890625,13.671875,-314.453125,-50.78125
1510174044843.4294,-19.53125,24.90234375,9.27734375,-79.1015625,-92.7734375
1510174044847.3357,68.84765625,25.390625,6.8359375,335.44921875,-41.015625
1510174044864.4087,-5.859375,28.80859375,8.7890625,182.6171875,40.52734375
1510174044868.315,-108.3984375,28.3203125,9.27734375,-278.3203125,-18.06640625
1510174044872.2212,-33.69140625,29.78515625,3.41796875,-165.52734375,-57.6171875
1510174044876.1274,76.66015625,27.83203125,-1.46484375,303.22265625,-3.41796875
1510174044880.0337,48.828125,27.83203125,2.44140625,326.171875,20.99609375
1510174044883.94,-79.58984375,34.1796875,4.8828125,-190.4296875,-29.296875
1510174044887.8462,-43.45703125,36.62109375,-0.9765625,-270.99609375,-62.98828125
1510174044891.7524,64.453125,32.2265625,-5.859375,191.89453125,2.44140625
1510174044895.6587,66.89453125,23.4375,2.44140625,430.17578125,41.50390625
1510174044899.565,-71.2890625,19.04296875,9.765625,-45.41015625,7.8125
1510174044903.4712,-109.86328125,17.08984375,7.32421875,-298.828125,-12.20703125
1510174044907.3774,-2.9296875,20.5078125,4.8828125,87.40234375,6.34765625
1510174044909.9446,48.33984375,21.97265625,4.8828125,430.6640625,22.4609375
1510174044913.8508,-65.4296875,23.4375,7.32421875,75.68359375,13.671875
1510174044917.757,-137.6953125,26.3671875,9.27734375,-318.359375,-9.765625
1510174044921.6633,-43.45703125,25.87890625,6.34765625,-66.89453125,-21.97265625
1510174044925.5696,48.33984375,25.390625,5.37109375,373.53515625,18.06640625
1510174044929.4758,-29.78515625,25.390625,8.30078125,208.49609375,15.625
1510174044933.382,-137.6953125,23.92578125,9.27734375,-284.1796875,-26.3671875
1510174044937.2883,-67.87109375,24.4140625,7.8125,-169.43359375,0.0
1510174044941.1946,44.921875,24.4140625,4.8828125,312.98828125,62.98828125
1510174044945.1008,31.25,26.3671875,5.37109375,329.58984375,40.0390625
1510174044949.007,-95.21484375,27.83203125,5.37109375,-204.1015625,-20.01953125
1510174044952.9133,-87.890625,25.390625,3.41796875,-268.06640625,-25.87890625
1510174044954.4922,29.78515625,24.4140625,5.37109375,170.41015625,-2.44140625
1510174044958.3984,70.80078125,25.87890625,8.30078125,418.9453125,4.39453125
1510174044962.3047,-48.828125,31.73828125,12.6953125,-4.8828125,3.41796875
1510174044966.211,-88.8671875,29.78515625,13.671875,-295.41015625,-10.25390625
1510174044970.1172,9.27734375,24.4140625,11.71875,48.828125,-6.8359375
1510174044974.0234,76.171875,24.4140625,7.32421875,397.94921875,31.25
1510174044977.9297,-28.80859375,31.25,12.20703125,82.03125,17.578125
1510174044981.836,-115.72265625,36.1328125,16.6015625,-321.2890625,-3.41796875
1510174044985.7422,-35.64453125,31.25,12.6953125,-107.421875,-38.57421875
1510174044989.6484,58.10546875,28.80859375,8.7890625,305.17578125,-23.92578125
1510174044993.5547,4.39453125,33.203125,8.7890625,227.05078125,34.1796875
1510174044997.461,-111.81640625,32.2265625,11.71875,-234.375,-1.46484375
1510174044999.5046,-60.546875,27.34375,13.18359375,-213.8671875,-21.484375
1510174045003.411,55.6640625,32.2265625,12.20703125,237.79296875,-14.6484375
1510174045007.3171,53.7109375,37.59765625,11.71875,355.95703125,22.4609375
1510174045011.2234,-85.44921875,37.109375,13.671875,-144.53125,4.39453125
1510174045015.1296,-87.890625,36.1328125,15.13671875,-301.7578125,-29.78515625
1510174045019.036,32.71484375,36.62109375,15.13671875,117.1875,12.6953125
1510174045022.9421,74.21875,37.109375,10.25390625,388.671875,36.1328125
1510174045026.8484,-49.31640625,36.1328125,9.27734375,-6.34765625,24.90234375
1510174045030.7546,-101.07421875,33.69140625,13.671875,-328.125,0.48828125
1510174045034.661,-0.48828125,34.66796875,14.6484375,-39.0625,-13.671875
1510174045038.5671,83.984375,36.1328125,10.7421875,395.99609375,19.53125
1510174045042.4734,-6.8359375,38.0859375,15.13671875,161.62109375,9.765625
1510174045044.5554,-102.05078125,43.9453125,20.01953125,-300.29296875,7.32421875
1510174045048.4617,-21.97265625,45.8984375,17.08984375,-123.046875,-20.5078125
1510174045052.368,83.49609375,43.45703125,16.6015625,338.37890625,-17.578125
1510174045056.2742,32.71484375,43.45703125,17.08984375,290.52734375,34.1796875
1510174045060.1804,-97.16796875,41.50390625,17.578125,-222.65625,17.578125
1510174045064.0867,-52.734375,40.52734375,20.01953125,-229.4921875,-21.97265625
1510174045067.993,59.08203125,42.48046875,21.484375,232.91015625,13.671875
1510174045071.8992,66.89453125,41.9921875,20.01953125,388.18359375,49.8046875
1510174045075.8054,-54.19921875,43.45703125,20.99609375,-127.9296875,5.859375
1510174045079.7117,-66.40625,48.33984375,25.390625,-307.6171875,-19.04296875
1510174045083.618,35.64453125,50.29296875,21.484375,121.09375,-3.90625
1510174045087.5242,84.47265625,46.875,13.671875,408.203125,12.20703125
1510174045089.5667,-38.0859375,43.9453125,18.06640625,26.85546875,-40.0390625
1510174045093.473,-103.02734375,46.875,23.92578125,-316.40625,-55.17578125
1510174045097.3792,-7.32421875,44.921875,23.92578125,-40.52734375,-28.3203125
1510174045101.2854,76.171875,42.48046875,20.5078125,367.67578125,38.57421875
1510174045105.1917,-4.39453125,43.9453125,20.5078125,180.6640625,49.31640625
1510174045109.098,-107.91015625,49.31640625,20.5078125,-279.296875,3.90625
1510174045113.0042,-33.69140625,63.96484375,15.13671875,-156.73828125,1.953125
1510174045116.9104,74.21875,67.87109375,19.53125,292.96875,-35.15625
1510174045120.8167,47.36328125,71.2890625,23.92578125,302.734375,-16.11328125
1510174045124.723,-94.7265625,82.03125,15.625,-185.546875,19.53125
1510174045128.6292,-74.70703125,76.171875,9.27734375,-240.72265625,-20.01953125
1510174045132.5354,40.52734375,66.40625,5.37109375,179.6875,-43.9453125
1510174045134.6086,54.19921875,62.98828125,4.39453125,375.9765625,15.625
1510174045138.515,-68.84765625,62.98828125,8.30078125,-58.10546875,14.6484375
1510174045142.4211,-94.7265625,59.08203125,11.23046875,-302.734375,-37.109375
1510174045146.3274,8.30078125,53.22265625,10.7421875,55.6640625,3.41796875
1510174045150.2336,71.2890625,48.33984375,9.765625,403.3203125,40.52734375
1510174045154.14,-32.71484375,48.828125,13.18359375,70.3125,13.18359375
1510174045158.0461,-105.46875,48.828125,15.625,-308.10546875,-0.9765625
1510174045161.9524,-18.5546875,46.38671875,12.6953125,-97.65625,-34.66796875
1510174045165.8586,77.1484375,48.828125,8.30078125,349.609375,18.06640625
1510174045169.765,16.11328125,52.24609375,10.25390625,257.32421875,50.78125
1510174045173.6711,-101.07421875,54.19921875,11.71875,-235.83984375,1.953125
1510174045177.5774,-39.0625,52.24609375,9.765625,-158.69140625,-15.625
1510174045179.6338,77.1484375,51.7578125,7.32421875,305.6640625,23.92578125
1510174045183.54,54.6875,51.7578125,9.765625,371.58203125,49.31640625
1510174045187.4463,-81.54296875,48.828125,13.671875,-146.97265625,30.2734375
1510174045191.3525,-69.82421875,49.31640625,13.18359375,-264.16015625,2.44140625
1510174045195.2588,45.41015625,48.828125,12.6953125,184.5703125,2.9296875
1510174045199.165,77.63671875,45.41015625,14.6484375,434.5703125,47.8515625
1510174045203.0713,-50.29296875,47.36328125,21.484375,-29.78515625,11.23046875
1510174045206.9775,-91.30859375,49.8046875,20.99609375,-334.47265625,-68.84765625
1510174045210.8838,15.625,48.33984375,12.6953125,47.36328125,-15.625
1510174045214.79,95.21484375,49.8046875,9.765625,439.453125,75.68359375
1510174045218.6963,-6.8359375,47.8515625,10.25390625,132.8125,78.61328125
1510174045222.6025,-93.75,48.828125,11.23046875,-286.62109375,35.15625
1510174045224.6633,-8.7890625,49.8046875,13.671875,-80.078125,10.7421875
1510174045228.5696,82.03125,46.38671875,16.6015625,340.33203125,-1.953125
1510174045232.4758,27.83203125,46.38671875,20.99609375,247.55859375,2.9296875
1510174045236.382,-91.30859375,46.38671875,24.90234375,-231.93359375,-27.83203125
1510174045240.2883,-38.57421875,46.875,26.3671875,-185.546875,-36.1328125
1510174045244.1946,73.73046875,47.36328125,23.92578125,269.04296875,-0.9765625
1510174045248.1008,62.5,47.36328125,20.5078125,338.37890625,-7.8125
1510174045252.007,-65.4296875,50.78125,18.5546875,-135.7421875,-4.8828125
1510174045255.9133,-62.5,49.8046875,15.625,-249.51171875,14.6484375
1510174045259.8196,44.921875,47.8515625,12.6953125,136.71875,29.78515625
1510174045263.7258,85.44921875,44.921875,11.23046875,391.6015625,31.25
1510174045267.632,-35.15625,42.48046875,12.6953125,-0.9765625,9.27734375
1510174045284.3284,-91.796875,42.96875,13.18359375,-310.546875,-25.390625
1510174045288.2346,0.9765625,42.96875,9.27734375,-13.671875,-23.4375
1510174045292.1409,82.51953125,41.50390625,5.859375,373.53515625,26.85546875
1510174045296.047,-7.32421875,43.45703125,8.30078125,134.27734375,36.1328125
1510174045299.9534,-109.375,40.0390625,9.27734375,-303.22265625,36.62109375
1510174045303.8596,-35.15625,34.66796875,7.32421875,-150.390625,13.671875
1510174045307.7659,72.265625,39.0625,4.8828125,292.96875,43.45703125
1510174045311.672,27.83203125,41.50390625,3.41796875,287.109375,101.07421875
1510174045315.5784,-101.5625,38.57421875,12.20703125,-213.37890625,62.98828125
1510174045319.4846,-64.453125,39.0625,15.13671875,-249.51171875,14.6484375
1510174045323.3909,49.31640625,39.0625,11.71875,212.890625,16.11328125
1510174045327.297,57.12890625,36.62109375,12.6953125,391.6015625,34.66796875
1510174045329.6523,-80.078125,36.1328125,17.578125,-84.47265625,-3.90625
1510174045333.5586,-92.7734375,34.1796875,16.6015625,-300.29296875,-20.01953125
1510174045337.4648,15.13671875,31.73828125,11.71875,81.0546875,11.71875
1510174045341.371,72.265625,31.73828125,10.7421875,411.62109375,47.36328125
1510174045345.2773,-29.78515625,33.69140625,13.18359375,49.8046875,38.0859375
1510174045349.1836,-100.5859375,35.15625,13.18359375,-319.82421875,-8.30078125
1510174045353.0898,-10.25390625,36.62109375,11.23046875,-56.640625,-7.32421875
1510174045356.996,79.58984375,34.1796875,10.25390625,356.4453125,0.0
1510174045360.9023,-0.48828125,29.296875,16.6015625,176.7578125,16.11328125
1510174045364.8086,-109.375,33.203125,16.6015625,-310.546875,-20.01953125
1510174045368.7148,-47.8515625,41.015625,2.44140625,-193.359375,-17.578125
1510174045372.621,59.08203125,37.59765625,2.9296875,299.31640625,16.11328125
1510174045374.6782,37.109375,33.69140625,11.23046875,318.359375,18.06640625
1510174045378.5845,-93.26171875,34.1796875,12.6953125,-184.08203125,-16.6015625
1510174045382.4907,-63.96484375,37.109375,10.7421875,-231.93359375,-38.57421875
1510174045386.397,52.734375,44.43359375,8.30078125,207.51953125,8.30078125
1510174045390.3032,82.03125,49.31640625,11.23046875,407.2265625,50.29296875
1510174045394.2095,-39.55078125,49.8046875,16.11328125,-33.69140625,35.15625
1510174045398.1157,-66.89453125,48.33984375,13.671875,-272.4609375,-5.37109375
1510174045402.022,52.24609375,48.828125,8.7890625,99.12109375,2.44140625
1510174045405.9282,117.1875,44.43359375,8.7890625,426.7578125,2.44140625
1510174045409.8345,7.32421875,56.15234375,6.8359375,77.1484375,-44.43359375
1510174045413.7407,-61.5234375,62.5,0.0,-271.484375,-41.015625
1510174045417.647,37.109375,52.734375,-0.48828125,-0.48828125,-4.39453125
1510174045419.6963,136.71875,52.734375,-0.48828125,414.0625,26.3671875
1510174045423.6025,71.2890625,49.31640625,0.9765625,261.23046875,7.32421875
1510174045427.5088,-44.43359375,42.96875,8.7890625,-213.37890625,-42.96875
1510174045431.415,8.7890625,38.0859375,12.6953125,-140.13671875,-26.85546875
1510174045435.3213,106.4453125,36.1328125,10.7421875,303.22265625,8.30078125
1510174045439.2275,80.078125,35.15625,8.7890625,358.3984375,16.11328125
1510174045443.1338,-55.6640625,35.15625,12.20703125,-137.6953125,25.390625
1510174045447.04,-43.9453125,37.109375,12.20703125,-243.65234375,-5.859375
1510174045450.9463,76.66015625,37.59765625,10.7421875,151.3671875,-29.78515625
1510174045454.8525,108.3984375,37.109375,8.7890625,400.87890625,23.92578125
1510174045458.7588,-12.20703125,38.0859375,9.27734375,10.25390625,34.1796875
1510174045462.665,-53.22265625,37.109375,11.23046875,-283.69140625,-17.08984375
1510174045464.7283,48.828125,38.57421875,12.6953125,43.9453125,-12.20703125
1510174045468.6345,122.0703125,40.0390625,10.7421875,412.109375,49.31640625
1510174045472.5408,17.08984375,42.48046875,12.6953125,126.46484375,29.296875
1510174045476.447,-71.77734375,43.9453125,12.20703125,-296.875,-42.96875
1510174045480.3533,6.34765625,41.015625,8.7890625,-94.23828125,-40.52734375
1510174045484.2595,97.65625,41.015625,9.765625,344.7265625,-9.27734375
1510174045488.1658,35.64453125,44.43359375,11.23046875,253.90625,37.59765625
1510174045492.072,-80.56640625,47.8515625,11.71875,-245.1171875,-12.6953125
1510174045495.9783,-29.78515625,44.921875,8.30078125,-224.12109375,-43.9453125
1510174045499.8845,70.80078125,40.0390625,4.8828125,270.5078125,33.69140625
1510174045503.7908,67.3828125,42.96875,5.37109375,393.06640625,39.0625
1510174045507.697,-55.6640625,44.921875,6.34765625,-107.421875,3.41796875
1510174045509.2664,-58.59375,41.9921875,3.41796875,-257.32421875,3.90625
1510174045513.1726,45.41015625,37.59765625,3.90625,153.80859375,-1.953125
1510174045517.0789,85.9375,36.62109375,3.41796875,420.8984375,22.94921875
1510174045520.985,-30.2734375,38.57421875,5.859375,10.25390625,11.71875
1510174045524.8914,-85.9375,40.0390625,9.27734375,-301.7578125,-68.84765625
1510174045528.7976,8.7890625,41.50390625,8.7890625,13.18359375,-47.36328125
1510174045532.7039,86.9140625,44.43359375,6.34765625,399.90234375,24.4140625
1510174045536.61,-4.39453125,46.38671875,5.859375,122.55859375,-24.90234375
1510174045540.5164,-96.19140625,42.48046875,5.859375,-306.15234375,-67.87109375
1510174045544.4226,-14.6484375,43.45703125,3.41796875,-83.49609375,-41.9921875
1510174045548.3289,76.66015625,48.33984375,2.44140625,333.49609375,-21.484375
1510174045552.235,22.94921875,48.828125,6.8359375,264.16015625,6.34765625
1510174045554.2915,-97.16796875,46.875,12.20703125,-218.75,-1.46484375
1510174045558.1978,-58.10546875,42.96875,12.20703125,-224.609375,-23.4375
1510174045562.104,53.7109375,43.45703125,8.7890625,217.28515625,0.9765625
1510174045566.0103,60.546875,41.9921875,8.30078125,371.09375,28.3203125
1510174045569.9165,-77.63671875,38.57421875,11.71875,-88.37890625,-20.5078125
1510174045573.8228,-99.12109375,34.66796875,12.6953125,-299.31640625,-46.38671875
1510174045577.729,8.30078125,34.66796875,10.7421875,57.6171875,-29.296875
1510174045581.6353,62.98828125,36.62109375,7.8125,357.91015625,-6.8359375
1510174045585.5415,-44.921875,38.57421875,7.32421875,27.34375,-18.06640625
1510174045589.4478,-113.76953125,40.0390625,8.7890625,-303.7109375,-50.29296875
1510174045593.354,-20.01953125,40.0390625,5.859375,-53.7109375,-36.1328125
1510174045597.2603,66.89453125,39.0625,5.859375,353.02734375,-13.18359375
1510174045599.344,-14.16015625,37.109375,9.765625,179.6875,-13.671875
1510174045603.2502,-113.76953125,37.109375,11.71875,-281.73828125,-16.6015625
1510174045607.1565,-42.96875,33.203125,12.6953125,-157.2265625,-5.37109375
1510174045611.0627,61.5234375,30.2734375,13.671875,294.921875,24.4140625
1510174045614.969,33.203125,29.78515625,15.625,314.94140625,31.25
1510174045618.8752,-88.8671875,26.3671875,22.94921875,-179.6875,6.34765625
1510174045622.7815,-62.5,26.3671875,24.90234375,-275.390625,25.87890625
1510174045626.6877,52.24609375,28.3203125,19.04296875,165.0390625,16.11328125
1510174045630.594,77.1484375,28.3203125,18.5546875,397.94921875,-19.53125
1510174045634.5002,-54.6875,29.78515625,24.90234375,-50.29296875,-10.7421875
1510174045638.4065,-86.9140625,34.1796875,23.92578125,-288.0859375,-19.53125
1510174045642.3127,16.6015625,33.69140625,16.6015625,82.51953125,-13.671875
1510174045659.3682,81.54296875,30.76171875,15.13671875,430.6640625,14.6484375
1510174045663.2744,-23.4375,30.76171875,21.97265625,103.515625,2.44140625
1510174045667.1807,-105.95703125,28.3203125,24.90234375,-280.76171875,-14.16015625
1510174045671.087,-22.94921875,28.80859375,22.4609375,-38.57421875,-7.32421875
1510174045674.9932,63.96484375,30.2734375,20.5078125,377.44140625,0.0
1510174045678.8994,-17.08984375,28.80859375,19.53125,223.6328125,9.27734375
1510174045682.8057,-134.765625,28.3203125,19.53125,-264.6484375,-35.15625
1510174045686.712,-75.68359375,30.2734375,18.5546875,-160.64453125,-41.015625
1510174045690.6182,20.99609375,29.78515625,13.18359375,297.36328125,-19.53125
1510174045694.5244,-6.8359375,26.85546875,9.27734375,324.70703125,5.37109375
1510174045698.4307,-131.8359375,31.25,10.7421875,-170.8984375,-10.25390625
1510174045702.337,-112.3046875,32.71484375,9.765625,-252.9296875,-30.2734375
1510174045704.4004,6.8359375,30.76171875,9.27734375,166.50390625,-23.4375
1510174045708.3066,52.734375,32.2265625,5.859375,402.34375,5.37109375
1510174045712.213,-62.01171875,32.71484375,4.8828125,-10.25390625,2.9296875
1510174045716.1191,-108.88671875,32.2265625,6.34765625,-288.0859375,-42.48046875
1510174045720.0254,-7.32421875,31.73828125,4.39453125,33.203125,-35.15625
1510174045723.9316,70.80078125,27.83203125,1.46484375,389.6484375,11.23046875
1510174045727.838,-22.94921875,26.85546875,5.859375,105.46875,-0.48828125
1510174045731.7441,-106.4453125,24.90234375,8.30078125,-291.015625,-22.4609375
1510174045735.6504,-18.06640625,22.94921875,6.34765625,-78.125,-29.78515625
1510174045739.5566,77.63671875,24.4140625,5.859375,315.91796875,-34.66796875
1510174045743.463,27.83203125,28.3203125,7.8125,232.91015625,-0.9765625
1510174045747.3691,-88.37890625,31.73828125,14.16015625,-205.56640625,1.953125
1510174045749.4502,-47.36328125,32.2265625,13.671875,-191.89453125,-50.29296875
1510174045753.3564,63.4765625,30.76171875,7.8125,241.69921875,-26.85546875
1510174045757.2627,60.05859375,28.80859375,7.8125,367.67578125,35.15625
1510174045761.169,-76.171875,33.69140625,8.7890625,-127.9296875,2.9296875
1510174045765.0752,-81.0546875,35.15625,8.7890625,-296.38671875,-44.43359375
1510174045768.9814,30.76171875,33.203125,9.765625,109.375,-23.4375
1510174045772.8877,74.70703125,29.78515625,5.859375,394.04296875,47.8515625
1510174045776.794,-42.96875,27.83203125,7.8125,9.27734375,35.15625
1510174045780.7002,-104.4921875,28.3203125,8.7890625,-328.125,-52.734375
1510174045784.6064,-6.8359375,28.80859375,2.44140625,-41.015625,-21.97265625
1510174045788.5127,79.1015625,29.296875,0.48828125,388.18359375,55.6640625
1510174045792.419,-8.30078125,32.71484375,7.32421875,154.296875,30.2734375
1510174045794.4624,-108.3984375,33.69140625,10.7421875,-296.38671875,-5.37109375
1510174045798.3687,-29.296875,38.57421875,6.34765625,-121.09375,-33.203125
1510174045802.275,69.82421875,53.22265625,2.44140625,329.58984375,2.44140625
1510174045806.1812,20.5078125,57.6171875,3.90625,284.1796875,41.9921875
1510174045810.0874,-100.5859375,53.22265625,7.8125,-223.6328125,-3.41796875
1510174045813.9937,-60.05859375,40.52734375,6.34765625,-237.3046875,-24.90234375
1510174045817.9,49.8046875,28.80859375,0.48828125,212.890625,11.23046875
1510174045821.8062,62.5,26.3671875,2.9296875,367.1875,37.109375
1510174045825.7124,-64.453125,27.34375,7.8125,-125.9765625,-9.27734375
1510174045829.6187,-85.9375,26.3671875,8.30078125,-320.80078125,-55.17578125
1510174045833.525,19.04296875,22.4609375,9.765625,97.65625,-21.484375
1510174045837.4312,71.77734375,20.5078125,7.8125,410.15625,6.34765625
1510174045839.4954,-43.9453125,22.94921875,9.765625,35.15625,3.90625
1510174045843.4016,-117.1875,24.4140625,13.18359375,-311.03515625,29.78515625
1510174045847.3079,-26.3671875,22.4609375,13.671875,-45.41015625,26.3671875
1510174045851.214,66.40625,24.4140625,10.25390625,336.42578125,21.484375
1510174045855.1204,-8.30078125,24.4140625,10.7421875,157.2265625,42.48046875
1510174045859.0266,-116.69921875,21.484375,13.18359375,-287.59765625,33.203125
1510174045862.9329,-50.78125,20.01953125,13.671875,-173.828125,8.7890625
1510174045866.839,62.5,20.99609375,17.08984375,263.18359375,-15.13671875
1510174045870.7454,37.109375,20.01953125,20.01953125,268.06640625,-19.53125
1510174045874.6516,-95.703125,20.01953125,20.01953125,-194.3359375,-38.57421875
1510174045878.5579,-67.87109375,22.4609375,21.97265625,-229.4921875,-45.41015625
1510174045882.464,47.8515625,20.99609375,18.06640625,199.70703125,8.30078125
1510174045884.2874,70.80078125,20.5078125,17.08984375,395.99609375,51.26953125
1510174045888.1936,-51.7578125,22.94921875,24.4140625,-43.45703125,32.2265625
1510174045892.0999,-84.47265625,23.4375,28.3203125,-285.64453125,-7.32421875
1510174045896.006,13.671875,21.97265625,29.296875,65.91796875,20.01953125
1510174045899.9124,68.84765625,20.99609375,27.83203125,410.64453125,50.78125
1510174045903.8186,-41.015625,23.4375,28.80859375,69.3359375,-13.18359375
1510174045907.7249,-121.58203125,25.390625,30.2734375,-328.61328125,-67.87109375
1510174045911.631,-41.9921875,24.90234375,24.90234375,-102.05078125,-79.58984375
1510174045915.5374,42.96875,24.4140625,19.04296875,334.47265625,-24.90234375
1510174045919.4436,-19.53125,25.390625,20.5078125,243.1640625,5.37109375
1510174045923.3499,-121.09375,25.87890625,26.3671875,-243.65234375,-37.59765625
1510174045927.256,-54.6875,28.3203125,47.36328125,-179.6875,-12.6953125
1510174045929.3218,50.29296875,33.69140625,71.2890625,281.25,11.23046875
1510174045933.228,36.1328125,34.66796875,71.2890625,352.05078125,27.34375
1510174045937.1343,-83.984375,36.1328125,60.05859375,-153.80859375,50.29296875
1510174045941.0405,-76.66015625,38.57421875,44.43359375,-275.87890625,34.1796875
1510174045944.9468,29.296875,36.62109375,27.83203125,156.73828125,29.296875
1510174045948.853,60.05859375,35.64453125,18.5546875,402.83203125,31.73828125
1510174045952.7593,-55.6640625,40.0390625,15.625,-44.43359375,-35.15625
1510174045956.6655,-94.23828125,41.9921875,11.23046875,-342.7734375,-75.1953125
1510174045960.5718,1.953125,40.52734375,4.39453125,27.34375,-12.20703125
1510174045964.478,66.40625,38.57421875,3.90625,416.015625,39.0625
1510174045968.3843,-29.78515625,39.55078125,3.41796875,118.65234375,39.0625
1510174045972.2905,-110.3515625,43.45703125,3.41796875,-301.7578125,-5.859375
1510174045975.3528,-26.85546875,44.43359375,4.39453125,-97.16796875,-20.99609375
1510174045979.259,63.96484375,41.50390625,5.859375,335.9375,1.46484375
1510174045983.1653,-0.48828125,39.55078125,7.32421875,235.83984375,-8.30078125
1510174045987.0715,-120.1171875,41.50390625,9.27734375,-243.65234375,-11.71875
1510174045990.9778,-61.5234375,41.50390625,9.765625,-198.2421875,-55.17578125
1510174045994.884,46.38671875,40.52734375,8.30078125,249.51171875,-37.59765625
1510174045998.7903,43.9453125,43.45703125,6.34765625,336.42578125,18.06640625
1510174046002.6965,-74.21875,44.921875,9.27734375,-142.578125,-11.71875
1510174046006.6028,-74.70703125,44.921875,8.30078125,-253.90625,-2.44140625
1510174046010.509,29.78515625,48.33984375,2.44140625,134.27734375,11.23046875
1510174046014.4153,74.70703125,51.26953125,1.46484375,401.3671875,26.85546875
1510174046018.3215,-34.1796875,55.6640625,5.37109375,21.97265625,5.859375
1510174046034.3962,-88.8671875,55.6640625,6.8359375,-300.78125,-46.875
1510174046038.3025,-3.41796875,50.78125,1.46484375,-9.27734375,-17.578125
1510174046042.2087,69.82421875,53.22265625,0.0,380.37109375,24.4140625
1510174046046.115,-19.53125,58.59375,5.859375,151.3671875,1.953125
1510174046050.0212,-114.74609375,59.5703125,11.71875,-296.875,-48.828125
1510174046053.9275,-38.57421875,62.98828125,16.11328125,-144.04296875,-25.87890625
1510174046057.8337,63.96484375,62.5,12.6953125,300.29296875,29.78515625
1510174046061.74,24.4140625,57.6171875,9.765625,273.92578125,46.38671875
1510174046065.6462,-105.95703125,53.7109375,13.18359375,-216.30859375,-10.25390625
1510174046069.5525,-76.171875,50.78125,13.18359375,-269.04296875,-73.73046875
1510174046073.4587,27.83203125,50.29296875,8.7890625,168.9453125,-16.6015625
1510174046077.365,34.1796875,47.8515625,8.30078125,375.0,65.4296875
1510174046079.4346,-89.35546875,45.8984375,15.13671875,-90.8203125,68.84765625
1510174046083.3408,-102.5390625,48.828125,20.99609375,-315.4296875,36.62109375
1510174046087.247,-3.41796875,45.8984375,21.484375,63.96484375,45.41015625
1510174046091.1533,42.48046875,39.0625,17.578125,395.5078125,74.70703125
1510174046095.0596,-65.4296875,38.0859375,20.5078125,43.45703125,33.203125
1510174046098.9658,-126.953125,39.55078125,18.06640625,-323.2421875,-1.953125
1510174046102.872,-37.109375,39.55078125,11.23046875,-67.3828125,23.4375
1510174046106.7783,46.875,39.0625,10.25390625,358.3984375,84.9609375
1510174046110.6846,-24.4140625,44.43359375,10.25390625,185.05859375,72.75390625
1510174046114.5908,-111.81640625,48.33984375,9.765625,-301.7578125,0.48828125
1510174046118.497,-44.43359375,39.0625,10.25390625,-167.96875,2.44140625
1510174046122.4033,44.921875,29.296875,14.6484375,306.15234375,13.18359375
1510174046124.4595,17.578125,29.296875,20.99609375,301.7578125,9.765625
1510174046128.3657,-113.28125,28.3203125,22.94921875,-203.125,-19.04296875
1510174046132.272,-97.65625,25.390625,18.5546875,-246.09375,-24.4140625
1510174046136.1782,12.20703125,28.3203125,14.16015625,199.21875,12.20703125
1510174046140.0845,34.66796875,27.83203125,13.18359375,377.44140625,56.15234375
1510174046143.9907,-89.35546875,29.296875,16.11328125,-77.1484375,12.6953125
1510174046147.897,-116.69921875,34.1796875,17.578125,-317.3828125,-1.953125
1510174046151.8032,-8.30078125,34.1796875,16.6015625,54.6875,41.015625
1510174046155.7095,56.640625,34.66796875,15.625,384.27734375,16.11328125
1510174046159.6157,-46.875,37.109375,13.18359375,38.57421875,-11.23046875
1510174046163.522,-120.60546875,35.15625,11.71875,-313.4765625,-17.08984375
1510174046167.4282,-31.25,33.203125,11.23046875,-68.359375,-7.8125
1510174046169.5107,62.5,33.69140625,10.7421875,343.75,15.625
1510174046173.417,-4.39453125,35.15625,9.765625,209.47265625,29.296875
1510174046177.3232,-118.65234375,35.64453125,8.7890625,-268.5546875,13.18359375
1510174046181.2295,-62.01171875,31.25,10.7421875,-209.47265625,-36.62109375
1510174046185.1357,43.9453125,29.78515625,9.765625,248.53515625,16.6015625
1510174046189.042,30.76171875,30.76171875,7.8125,321.2890625,65.4296875
1510174046192.9482,-93.26171875,34.1796875,10.25390625,-173.33984375,41.9921875
1510174046196.8545,-81.54296875,34.1796875,11.23046875,-278.3203125,29.296875
1510174046200.7607,23.92578125,34.1796875,8.7890625,110.83984375,27.83203125
1510174046204.667,56.15234375,37.109375,5.859375,367.67578125,57.12890625
1510174046208.5732,-62.01171875,38.0859375,10.25390625,-3.41796875,38.57421875
1510174046212.4795,-104.98046875,35.64453125,11.71875,-300.78125,47.8515625
1510174046214.5425,-1.953125,32.71484375,8.30078125,6.8359375,19.04296875
1510174046218.4487,71.2890625,32.2265625,3.41796875,379.39453125,-4.39453125
1510174046222.355,-27.34375,34.1796875,4.8828125,117.1875,47.8515625
1510174046226.2612,-103.02734375,36.62109375,12.20703125,-299.31640625,12.6953125
1510174046230.1675,-13.18359375,38.57421875,11.71875,-99.12109375,-26.3671875
1510174046234.0737,76.171875,39.0625,9.765625,339.35546875,-14.16015625
1510174046237.98,15.625,37.109375,8.30078125,247.55859375,20.5078125
1510174046241.8862,-106.93359375,37.109375,6.8359375,-256.8359375,-47.36328125
1510174046245.7925,-53.22265625,37.109375,6.34765625,-242.1875,-95.21484375
1510174046249.6987,62.01171875,39.55078125,3.41796875,249.0234375,-33.203125
1510174046253.605,57.6171875,44.43359375,5.859375,381.34765625,-1.46484375
1510174046257.5112,-70.80078125,45.8984375,8.30078125,-112.3046875,-13.18359375
1510174046260.0566,-76.66015625,45.41015625,8.7890625,-272.94921875,-13.671875
1510174046263.963,23.4375,47.36328125,7.32421875,125.0,-17.08984375
1510174046267.8691,62.98828125,49.8046875,6.34765625,410.64453125,7.32421875
1510174046271.7754,-59.5703125,49.31640625,8.30078125,5.859375,8.7890625
1510174046275.6816,-117.1875,45.41015625,10.25390625,-317.87109375,8.30078125
1510174046279.588,-20.01953125,48.33984375,11.71875,-7.8125,11.23046875
1510174046283.4941,56.15234375,63.96484375,8.7890625,375.48828125,22.94921875
1510174046287.4004,-32.71484375,69.3359375,8.7890625,124.51171875,41.015625
1510174046291.3066,-124.0234375,70.80078125,9.765625,-306.15234375,9.765625
1510174046295.213,-56.15234375,64.453125,8.7890625,-114.74609375,-3.41796875
1510174046299.1191,37.109375,45.8984375,7.8125,314.453125,-11.23046875
1510174046303.0254,-0.9765625,38.0859375,7.32421875,272.94921875,2.44140625
1510174046319.6204,-129.39453125,38.0859375,5.37109375,-206.0546875,19.04296875
1510174046323.5266,-84.47265625,39.0625,4.8828125,-211.42578125,12.6953125
1510174046327.4329,30.2734375,37.59765625,5.859375,226.5625,7.32421875
1510174046331.339,35.15625,36.1328125,5.859375,378.41796875,16.11328125
1510174046335.2454,-93.26171875,37.109375,8.7890625,-75.68359375,-22.4609375
1510174046339.1516,-120.60546875,34.1796875,8.30078125,-280.2734375,-43.9453125
1510174046343.0579,-11.23046875,35.64453125,7.8125,73.73046875,-37.59765625
1510174046346.964,50.78125,37.109375,9.765625,380.859375,-6.34765625
1510174046350.8704,-62.01171875,34.66796875,8.7890625,70.80078125,17.578125
1510174046354.7766,-132.32421875,27.83203125,8.30078125,-279.296875,-33.203125
1510174046358.6829,-36.1328125,23.4375,8.7890625,-28.3203125,-18.06640625
1510174046362.589,49.8046875,22.4609375,10.25390625,378.41796875,30.2734375
1510174046349.6384,-25.390625,24.90234375,13.18359375,202.1484375,33.203125
1510174046353.5447,-118.65234375,30.76171875,14.16015625,-254.39453125,-5.37109375
1510174046357.451,-46.875,33.69140625,12.6953125,-144.53125,-20.01953125
1510174046361.3572,64.453125,34.1796875,9.765625,300.29296875,34.66796875
1510174046365.2634,44.43359375,34.66796875,7.32421875,323.2421875,70.3125
1510174046369.1697,-83.49609375,34.66796875,11.23046875,-171.38671875,-8.30078125
1510174046373.076,-59.5703125,30.2734375,11.23046875,-246.58203125,-60.05859375
1510174046376.9822,62.01171875,25.87890625,9.27734375,192.87109375,-40.0390625
1510174046380.8884,88.37890625,23.92578125,9.27734375,396.97265625,-14.16015625
1510174046384.7947,-43.9453125,26.85546875,8.7890625,-51.26953125,8.7890625
1510174046388.701,-83.984375,28.3203125,6.8359375,-331.54296875,-12.20703125
1510174046392.6072,20.5078125,29.296875,0.9765625,31.73828125,2.9296875
1510174046409.6643,86.42578125,27.83203125,-0.48828125,416.015625,49.31640625
1510174046413.5706,-15.13671875,26.3671875,5.37109375,77.1484375,19.04296875
1510174046417.4768,-97.16796875,30.76171875,5.859375,-324.21875,-48.33984375
1510174046421.383,-18.06640625,30.76171875,1.953125,-72.265625,-33.69140625
1510174046425.2893,71.77734375,27.34375,-1.953125,351.07421875,3.90625
1510174046429.1956,2.9296875,29.296875,-0.9765625,200.1953125,-18.06640625
1510174046433.1018,-110.83984375,31.25,2.44140625,-287.59765625,-33.69140625
1510174046437.008,-51.7578125,29.78515625,0.9765625,-185.05859375,1.46484375
1510174046440.9143,58.59375,30.2734375,1.46484375,287.109375,30.76171875
1510174046444.8206,48.828125,31.73828125,5.37109375,324.70703125,10.7421875
1510174046448.7268,-80.078125,29.296875,12.20703125,-160.64453125,-17.08984375
1510174046452.633,-67.87109375,29.78515625,13.18359375,-252.9296875,-35.15625
1510174046454.6926,43.9453125,31.73828125,9.765625,160.15625,1.953125
1510174046458.5989,79.1015625,30.2734375,9.765625,403.3203125,28.3203125
1510174046462.5051,-31.25,33.69140625,17.578125,-0.9765625,29.296875
1510174046466.4114,-79.1015625,36.1328125,20.99609375,-274.4140625,29.296875
1510174046470.3176,10.7421875,35.64453125,16.6015625,35.64453125,-7.32421875
1510174046474.2239,89.84375,38.57421875,11.71875,385.25390625,-20.99609375
1510174046478.1301,-7.8125,41.50390625,8.7890625,116.69921875,-14.16015625
1510174046482.0364,-102.05078125,44.43359375,9.765625,-283.69140625,-25.390625
1510174046485.9426,-27.83203125,45.8984375,9.27734375,-89.35546875,-40.0390625
1510174046489.8489,65.91796875,46.38671875,6.8359375,298.33984375,-46.875
1510174046493.7551,-1.953125,42.96875,4.8828125,218.75,8.30078125
1510174046497.6614,-144.04296875,34.66796875,10.25390625,-227.5390625,6.34765625
1510174046499.7263,-93.26171875,30.76171875,16.6015625,-221.6796875,-55.17578125
1510174046503.6326,22.4609375,29.296875,14.6484375,219.23828125,-13.18359375
1510174046507.5388,18.5546875,34.66796875,13.671875,349.12109375,39.55078125
1510174046511.445,-112.79296875,38.57421875,17.08984375,-135.25390625,9.27734375
1510174046515.3513,-124.51171875,34.66796875,15.13671875,-295.8984375,33.203125
1510174046519.2576,-11.23046875,35.64453125,10.25390625,99.609375,39.0625
1510174046523.1638,52.734375,36.62109375,8.30078125,387.20703125,29.78515625
1510174046527.07,-54.19921875,37.109375,10.7421875,18.5546875,22.94921875
1510174046530.9763,-107.91015625,39.0625,14.6484375,-314.94140625,-42.48046875
1510174046534.8826,-15.13671875,36.1328125,12.20703125,-32.2265625,-32.2265625
1510174046538.7888,71.2890625,37.59765625,8.7890625,397.94921875,43.9453125
1510174046542.695,-6.8359375,40.0390625,14.16015625,180.17578125,48.828125
1510174046544.2764,-103.02734375,41.015625,16.6015625,-290.0390625,5.37109375
1510174046548.1826,-23.4375,39.55078125,17.08984375,-132.8125,-16.6015625
1510174046552.0889,79.1015625,34.1796875,17.578125,321.77734375,5.859375
1510174046555.995,30.2734375,36.1328125,17.08984375,284.1796875,29.296875
1510174046559.9014,-90.33203125,41.015625,21.97265625,-206.54296875,4.8828125
1510174046563.8076,-51.26953125,41.50390625,20.01953125,-220.703125,-0.48828125
1510174046567.7139,60.05859375,41.50390625,17.578125,217.28515625,21.484375
1510174046571.62,75.68359375,41.015625,20.5078125,381.8359375,14.6484375
1510174046575.5264,-52.734375,42.48046875,22.4609375,-101.5625,-10.25390625
1510174046579.4326,-71.77734375,41.50390625,19.53125,-300.29296875,-10.25390625
1510174046583.3389,31.73828125,39.55078125,15.13671875,111.81640625,-1.953125
1510174046587.245,87.40234375,39.0625,14.6484375,411.62109375,17.578125
1510174046604.8167,-22.94921875,50.29296875,18.5546875,55.17578125,40.0390625
1510174046608.723,-97.16796875,66.89453125,19.04296875,-285.64453125,6.34765625
1510174046612.6292,-9.27734375,68.359375,15.625,-19.53125,23.4375
1510174046616.5354,76.171875,63.4765625,13.18359375,373.53515625,56.640625
1510174046620.4417,-0.9765625,58.10546875,15.625,183.10546875,25.87890625
1510174046624.348,-107.91015625,55.6640625,15.625,-275.390625,-19.53125
1510174046628.2542,-42.96875,42.96875,11.23046875,-152.34375,11.23046875
1510174046632.1604,52.734375,31.25,11.71875,286.62109375,31.73828125
1510174046636.0667,24.90234375,34.66796875,12.20703125,286.62109375,18.06640625
1510174046639.973,-99.609375,36.1328125,11.23046875,-169.43359375,35.64453125
1510174046643.8792,-75.68359375,34.1796875,11.71875,-215.33203125,38.57421875
1510174046647.7854,41.9921875,32.2265625,8.30078125,191.40625,8.30078125
1510174046634.3203,73.73046875,29.78515625,5.859375,394.53125,25.390625
1510174046638.2266,-49.31640625,29.78515625,9.765625,-21.484375,12.20703125
1510174046642.1328,-98.6328125,24.4140625,10.7421875,-266.11328125,-20.5078125
1510174046646.039,-6.8359375,17.578125,7.32421875,66.40625,4.8828125
1510174046649.9453,60.546875,14.6484375,7.8125,406.25,46.875
1510174046653.8516,-41.50390625,16.11328125,11.71875,96.19140625,68.359375
1510174046657.7578,-119.62890625,15.13671875,13.18359375,-307.6171875,30.2734375
1510174046661.664,-38.0859375,10.7421875,11.23046875,-84.47265625,5.859375
1510174046665.5703,52.734375,14.16015625,8.30078125,354.00390625,53.22265625
1510174046669.4766,-12.20703125,18.06640625,10.25390625,227.05078125,69.3359375
1510174046673.3828,-127.44140625,20.5078125,10.25390625,-272.4609375,7.32421875
1510174046677.289,-67.87109375,21.97265625,9.27734375,-238.28125,-29.296875
1510174046679.3518,43.45703125,19.53125,3.41796875,238.28125,19.04296875
1510174046683.258,34.1796875,18.06640625,2.9296875,347.65625,19.53125
1510174046687.1643,-92.7734375,19.04296875,9.27734375,-152.34375,-24.90234375
1510174046691.0706,-80.078125,22.94921875,11.23046875,-265.13671875,-23.4375
1510174046694.9768,33.203125,24.90234375,10.25390625,154.78515625,-4.39453125
1510174046698.883,71.2890625,25.87890625,7.32421875,404.296875,38.57421875
1510174046702.7893,-41.015625,28.80859375,9.27734375,-26.3671875,28.80859375
1510174046706.6956,-88.37890625,30.2734375,9.765625,-336.42578125,-26.3671875
1510174046710.6018,8.7890625,32.71484375,1.953125,19.04296875,8.30078125
1510174046714.508,85.44921875,35.64453125,0.48828125,405.76171875,43.45703125
1510174046718.4143,-28.3203125,28.80859375,6.8359375,108.3984375,17.578125
1510174046722.3206,-123.046875,22.4609375,13.18359375,-312.01171875,-24.4140625
1510174046739.2834,-28.80859375,25.87890625,13.18359375,-99.609375,-20.01953125
1510174046743.1897,68.84765625,29.296875,7.32421875,321.2890625,41.9921875
1510174046747.096,21.97265625,32.2265625,6.8359375,224.12109375,12.20703125
1510174046751.0022,-95.21484375,34.1796875,7.8125,-250.48828125,-24.4140625
1510174046754.9084,-54.6875,36.1328125,4.8828125,-214.35546875,-8.30078125
1510174046758.8147,56.640625,39.55078125,2.9296875,234.375,29.296875
1510174046762.721,58.59375,36.62109375,3.90625,313.4765625,28.80859375
1510174046766.6272,-72.75390625,36.1328125,5.859375,-161.62109375,-26.3671875
1510174046770.5334,-79.58984375,37.109375,5.37109375,-269.04296875,-14.16015625
1510174046774.4397,23.4375,33.69140625,7.32421875,110.83984375,11.71875
1510174046778.346,71.2890625,34.1796875,9.765625,371.58203125,-21.484375
1510174046782.2522,-41.015625,37.59765625,11.71875,-3.90625,-16.11328125
1510174046784.3157,-101.07421875,36.62109375,11.23046875,-329.58984375,-53.22265625
1510174046788.222,-12.20703125,34.1796875,7.8125,-43.45703125,-33.203125
1510174046792.1282,67.87109375,33.203125,10.25390625,351.5625,36.1328125
1510174046796.0344,-12.20703125,35.64453125,14.16015625,133.7890625,40.0390625
1510174046799.9407,-110.83984375,39.0625,15.13671875,-313.4765625,24.90234375
1510174046803.847,-41.50390625,37.59765625,13.18359375,-178.22265625,0.48828125
1510174046807.7532,55.6640625,35.15625,11.23046875,255.37109375,24.4140625
1510174046811.6594,17.08984375,35.15625,8.7890625,228.515625,23.92578125
1510174046815.5657,-105.95703125,32.71484375,6.34765625,-240.234375,-7.8125
1510174046819.472,-67.3828125,33.203125,9.27734375,-272.94921875,-31.25
1510174046823.3782,49.8046875,33.203125,7.32421875,144.04296875,10.7421875
1510174046827.2844,66.40625,32.2265625,2.9296875,353.02734375,72.75390625
1510174046829.3474,-59.08203125,32.2265625,7.32421875,-94.7265625,23.4375
1510174046833.2537,-78.125,32.71484375,9.765625,-311.5234375,-3.41796875
1510174046837.16,26.85546875,37.109375,6.8359375,62.01171875,10.25390625
1510174046841.0662,81.0546875,40.0390625,7.32421875,384.765625,45.8984375
1510174046844.9724,-29.78515625,41.9921875,10.25390625,43.45703125,47.36328125
1510174046848.8787,-104.4921875,43.9453125,13.18359375,-325.1953125,20.5078125
1510174046852.785,-14.16015625,46.38671875,11.71875,-72.265625,24.4140625
1510174046856.6912,73.2421875,47.36328125,10.25390625,350.09765625,40.0390625
1510174046860.5974,-17.578125,41.50390625,20.01953125,172.36328125,20.5078125
1510174046864.5037,-124.0234375,34.66796875,25.87890625,-310.546875,-38.57421875
1510174046868.41,-56.640625,35.15625,23.92578125,-185.546875,-46.875
1510174046872.3162,41.015625,39.0625,18.06640625,286.1328125,-12.6953125
1510174046874.8623,12.6953125,34.66796875,18.06640625,308.59375,16.11328125
1510174046878.7686,-127.44140625,27.83203125,22.4609375,-191.40625,4.39453125
1510174046882.6748,-109.86328125,33.69140625,17.578125,-267.578125,-10.25390625
1510174046886.581,14.6484375,36.62109375,14.16015625,162.59765625,13.18359375
1510174046890.4873,41.015625,37.109375,10.7421875,367.67578125,44.921875
1510174046894.3936,-82.51953125,38.0859375,14.16015625,-74.21875,-0.9765625
1510174046898.2998,-95.21484375,36.1328125,20.01953125,-318.84765625,-73.73046875
1510174046902.206,22.94921875,34.66796875,18.5546875,51.7578125,19.53125
1510174046906.1123,93.26171875,32.71484375,19.53125,387.6953125,42.48046875
1510174046910.0186,-1.953125,35.15625,23.92578125,69.82421875,-15.13671875
1510174046913.9248,-76.171875,38.0859375,21.484375,-273.4375,-5.859375
1510174046917.831,11.23046875,38.0859375,17.08984375,-38.57421875,-9.27734375
1510174046919.411,102.05078125,33.69140625,11.23046875,356.4453125,30.76171875
1510174046923.3171,32.71484375,32.71484375,10.7421875,228.02734375,41.9921875
1510174046927.2234,-83.49609375,37.59765625,13.18359375,-239.2578125,26.3671875
1510174046931.1296,-38.57421875,34.66796875,13.18359375,-185.546875,32.71484375
1510174046935.036,60.546875,19.53125,20.01953125,264.6484375,10.7421875
1510174046938.9421,54.6875,27.83203125,19.04296875,344.7265625,28.3203125
1510174046942.8484,-89.35546875,45.41015625,6.8359375,-164.0625,30.76171875
1510174046946.7546,-116.2109375,48.828125,2.44140625,-305.17578125,-15.625
1510174046950.661,-23.4375,37.109375,5.859375,61.5234375,-49.31640625
1510174046954.5671,0.48828125,41.9921875,9.765625,305.17578125,8.30078125
1510174046958.4734,-138.671875,61.5234375,3.41796875,-76.66015625,22.4609375
1510174046962.3796,-184.08203125,66.89453125,8.30078125,-379.8828125,-40.0390625
1510174046964.4434,-75.1953125,66.40625,22.94921875,-59.08203125,-42.96875
1510174046968.3496,-29.78515625,54.6875,-3.41796875,276.85546875,-6.8359375
1510174046972.2559,-130.859375,61.5234375,-18.06640625,-4.39453125,-1.953125
1510174046976.162,-198.73046875,70.3125,-6.8359375,-394.04296875,-46.875
1510174046980.0684,-121.09375,63.4765625,-6.34765625,-203.125,-56.15234375
1510174046983.9746,-14.6484375,58.59375,-8.7890625,228.515625,-6.34765625
1510174046987.8809,-62.98828125,54.19921875,-3.41796875,171.38671875,55.17578125
1510174046991.787,-181.15234375,48.828125,2.44140625,-317.87109375,-24.4140625
1510174046995.6934,-120.60546875,50.29296875,1.46484375,-308.10546875,-34.66796875
1510174046999.5996,-3.41796875,41.015625,-4.39453125,187.5,62.01171875
1510174047003.5059,-3.41796875,25.390625,-0.48828125,313.96484375,46.875
1510174047007.412,-125.9765625,37.59765625,8.30078125,-175.29296875,9.27734375
1510174047025.4705,-133.7890625,45.8984375,0.9765625,-326.66015625,-8.7890625
1510174047029.3767,-24.90234375,45.8984375,-3.41796875,65.4296875,-1.46484375
1510174047033.283,22.94921875,46.875,1.953125,340.8203125,3.90625
1510174047037.1892,-92.7734375,44.921875,6.34765625,-39.55078125,-7.8125
1510174047041.0955,-147.94921875,45.41015625,9.27734375,-355.46875,-41.50390625
1510174047045.0017,-55.17578125,39.55078125,8.7890625,-65.91796875,-44.921875
1510174047048.908,23.92578125,34.1796875,8.30078125,334.47265625,7.8125
1510174047052.8142,-58.59375,36.62109375,9.765625,130.859375,7.8125
1510174047056.7205,-160.64453125,37.59765625,7.8125,-282.71484375,-17.578125
1510174047060.6267,-81.0546875,35.64453125,7.32421875,-96.6796875,-29.296875
1510174047064.533,31.25,32.2265625,6.8359375,332.03125,-6.8359375
1510174047068.4392,-4.39453125,29.78515625,6.34765625,277.83203125,-7.8125
1510174047054.4868,-123.53515625,31.73828125,11.23046875,-204.1015625,-35.64453125
1510174047058.393,-87.890625,34.1796875,12.20703125,-229.00390625,-26.3671875
1510174047062.2993,24.4140625,31.25,9.765625,185.546875,-12.6953125
1510174047066.2056,35.15625,30.2734375,15.625,359.86328125,6.34765625
1510174047070.1118,-89.35546875,33.203125,21.484375,-80.56640625,10.25390625
1510174047074.018,-107.421875,31.73828125,20.99609375,-288.57421875,-2.9296875
1510174047077.9243,-0.48828125,32.2265625,19.04296875,58.59375,-48.33984375
1510174047081.8306,62.5,34.1796875,13.18359375,375.0,-15.625
1510174047085.7368,-33.69140625,35.64453125,7.8125,56.640625,24.4140625
1510174047089.643,-93.26171875,35.64453125,7.8125,-298.828125,-50.78125
1510174047093.5493,-8.30078125,33.69140625,8.30078125,-65.91796875,-66.40625
1510174047097.4556,80.078125,34.1796875,9.765625,332.51953125,-12.20703125
1510174047099.519,11.23046875,38.57421875,11.23046875,195.80078125,20.99609375
1510174047103.4253,-96.19140625,39.55078125,9.27734375,-262.6953125,-64.94140625
1510174047107.3315,-35.64453125,36.1328125,5.37109375,-166.015625,-81.0546875
1510174047111.2378,60.05859375,35.15625,1.953125,274.90234375,-3.90625
1510174047115.144,31.73828125,38.57421875,0.9765625,306.15234375,18.06640625
1510174047119.0503,-98.6328125,41.50390625,2.9296875,-180.6640625,-23.4375
1510174047122.9565,-81.54296875,41.50390625,2.44140625,-292.48046875,-68.84765625
1510174047126.8628,21.97265625,38.0859375,0.0,140.13671875,-5.859375
1510174047130.769,47.36328125,37.59765625,1.953125,394.53125,41.50390625
1510174047134.6753,-66.89453125,36.1328125,8.30078125,-44.43359375,-24.4140625
1510174047138.5815,-93.75,37.109375,7.8125,-301.26953125,-23.4375
1510174047142.4878,-1.46484375,37.109375,1.953125,44.43359375,-13.671875
1510174047159.5818,53.22265625,35.15625,-1.46484375,383.30078125,-14.6484375
1510174047163.488,-42.96875,37.59765625,2.9296875,83.49609375,41.015625
1510174047167.3943,-116.2109375,40.52734375,10.25390625,-290.0390625,37.109375
1510174047171.3005,-24.4140625,41.015625,10.25390625,-65.4296875,15.13671875
1510174047175.2068,73.73046875,38.0859375,6.8359375,360.3515625,63.4765625
1510174047179.113,8.30078125,36.62109375,4.8828125,214.84375,-0.48828125
1510174047183.0193,-103.515625,38.57421875,45.8984375,-274.4140625,-39.55078125
1510174047186.9255,-43.45703125,37.59765625,77.63671875,-171.38671875,20.99609375
1510174047190.8318,58.10546875,33.203125,53.22265625,283.69140625,40.0390625
1510174047194.738,44.921875,33.203125,42.48046875,334.47265625,48.33984375
1510174047198.6443,-85.44921875,36.62109375,43.9453125,-152.83203125,24.90234375
1510174047202.5505,-81.54296875,38.0859375,43.45703125,-259.765625,-23.4375
1510174047204.6116,16.6015625,38.57421875,37.59765625,133.30078125,-5.859375
1510174047208.5178,44.921875,38.0859375,34.1796875,383.7890625,33.203125
1510174047212.424,-67.3828125,55.17578125,33.203125,-8.7890625,0.9765625
1510174047216.3303,-117.67578125,65.91796875,25.390625,-300.78125,-12.20703125
1510174047220.2366,-31.73828125,59.08203125,18.5546875,7.32421875,30.2734375
1510174047224.1428,36.62109375,57.12890625,14.6484375,349.12109375,37.59765625
1510174047228.049,-48.828125,55.6640625,18.5546875,88.37890625,23.4375
1510174047231.9553,-130.37109375,47.8515625,23.4375,-302.24609375,-25.390625
1510174047235.8616,-47.8515625,40.0390625,16.6015625,-101.5625,-53.7109375
1510174047239.7678,51.7578125,34.66796875,8.30078125,298.828125,-12.6953125
1510174047243.674,5.859375,33.69140625,8.30078125,241.69921875,11.71875
1510174047247.5803,-105.46875,36.1328125,12.20703125,-202.63671875,-35.15625
1510174047249.628,-58.10546875,32.71484375,11.71875,-221.19140625,-67.3828125
1510174047253.5342,49.31640625,30.76171875,11.23046875,214.35546875,-7.32421875
1510174047257.4404,52.734375,32.71484375,11.23046875,357.421875,19.04296875
1510174047261.3467,-68.359375,34.66796875,15.13671875,-108.3984375,-16.11328125
1510174047265.253,-78.61328125,33.69140625,15.13671875,-282.2265625,-52.734375
1510174047269.1592,16.6015625,31.25,13.18359375,97.16796875,-38.57421875
1510174047273.0654,61.03515625,33.203125,20.01953125,400.390625,44.43359375
1510174047276.9717,-47.8515625,35.64453125,20.5078125,33.69140625,35.64453125
1510174047280.878,-112.3046875,33.69140625,21.97265625,-315.4296875,-46.875
1510174047284.7842,-26.3671875,31.25,22.94921875,-35.64453125,-48.828125
1510174047288.6904,55.6640625,31.25,16.6015625,393.06640625,8.30078125
1510174047292.5967,-25.87890625,31.73828125,18.5546875,196.2890625,9.765625
1510174047294.6572,-121.58203125,31.73828125,20.5078125,-265.625,-10.25390625
1510174047298.5635,-46.38671875,30.2734375,19.53125,-132.8125,-48.33984375
1510174047302.4697,54.19921875,29.296875,17.08984375,315.91796875,-2.44140625
1510174047306.376,18.5546875,31.25,16.11328125,292.48046875,34.1796875
1510174047310.2822,-96.6796875,39.0625,15.625,-188.96484375,-17.08984375
1510174047314.1885,-66.40625,37.109375,17.08984375,-222.16796875,-45.41015625
1510174047318.0947,21.484375,24.4140625,21.484375,201.171875,4.39453125
1510174047322.001,31.73828125,15.625,25.390625,390.13671875,34.66796875
1510174047325.9072,-72.265625,20.01953125,29.296875,-75.1953125,-30.2734375
1510174047329.8135,-75.1953125,32.2265625,27.83203125,-263.18359375,-37.109375
1510174047333.7197,11.71875,32.2265625,28.80859375,125.48828125,-34.1796875
1510174047337.626,60.05859375,20.5078125,32.2265625,423.828125,-19.04296875
1510174047339.6917,-28.80859375,18.06640625,32.71484375,97.65625,7.32421875
1510174047343.598,-88.37890625,22.94921875,29.78515625,-249.0234375,-20.99609375
1510174047347.5042,-2.9296875,17.08984375,30.2734375,1.46484375,11.71875
1510174047351.4104,91.30859375,15.13671875,31.73828125,393.5546875,71.77734375
1510174047355.3167,27.34375,18.5546875,29.296875,234.375,41.50390625
1510174047359.223,-86.9140625,15.625,32.71484375,-207.51953125,-1.46484375
1510174047363.1292,-12.20703125,12.6953125,36.1328125,-102.5390625,13.18359375
1510174047367.0354,93.75,16.11328125,30.76171875,314.94140625,-2.9296875
1510174047370.9417,60.05859375,19.04296875,27.34375,318.359375,-16.11328125
1510174047374.848,-57.12890625,20.5078125,31.25,-137.20703125,-46.38671875
1510174047378.7542,-43.9453125,20.99609375,33.203125,-211.42578125,-73.2421875
1510174047382.6604,53.7109375,20.5078125,33.203125,192.87109375,3.90625
1510174047414.2632,83.49609375,24.4140625,37.59765625,407.71484375,51.7578125
1510174047418.1694,-24.4140625,24.4140625,41.015625,-8.7890625,30.2734375
1510174047422.0757,-55.17578125,18.06640625,39.55078125,-253.90625,-39.0625
1510174047425.982,39.0625,12.6953125,38.0859375,70.80078125,-45.8984375
1510174047429.8882,109.86328125,15.625,31.73828125,415.0390625,33.203125
1510174047433.7944,13.671875,17.578125,29.296875,132.8125,28.80859375
1510174047437.7007,-73.73046875,13.18359375,30.2734375,-257.8125,-26.3671875
1510174047441.607,3.41796875,14.16015625,29.296875,-67.3828125,-64.453125
1510174047445.5132,91.796875,14.16015625,27.83203125,364.74609375,-5.859375
1510174047449.4194,32.71484375,13.18359375,31.25,293.45703125,32.71484375
1510174047453.3257,-85.44921875,17.08984375,35.64453125,-187.01171875,-33.69140625
1510174047457.232,-41.9921875,18.06640625,36.62109375,-145.5078125,-59.5703125
1510174047429.2527,55.6640625,19.04296875,36.1328125,308.59375,4.39453125
1510174047433.159,36.62109375,21.97265625,37.59765625,399.4140625,66.89453125
1510174047437.0652,-94.7265625,24.4140625,39.0625,-96.6796875,55.6640625
1510174047440.9714,-86.42578125,23.92578125,36.1328125,-232.421875,-5.37109375
1510174047444.8777,20.01953125,24.4140625,33.203125,183.10546875,-11.23046875
1510174047448.784,54.6875,27.34375,30.76171875,439.453125,4.8828125
1510174047452.6902,-51.26953125,31.73828125,29.78515625,30.76171875,-10.7421875
1510174047456.5964,-92.7734375,32.2265625,29.296875,-256.34765625,-21.97265625
1510174047460.5027,4.8828125,30.2734375,29.296875,66.89453125,-17.08984375
1510174047464.409,86.9140625,28.80859375,30.76171875,445.3125,27.34375
1510174047468.3152,-3.90625,27.83203125,34.1796875,195.3125,31.25
1510174047472.2214,-75.68359375,26.85546875,38.0859375,-229.4921875,-27.83203125
1510174047474.2915,16.11328125,30.2734375,34.1796875,-43.9453125,-19.04296875
1510174047478.1978,102.05078125,35.15625,25.390625,383.7890625,35.15625
1510174047482.104,59.5703125,32.71484375,30.2734375,295.8984375,34.1796875
1510174047486.0103,-50.78125,34.66796875,34.1796875,-185.05859375,44.43359375
1510174047489.9165,-8.30078125,34.1796875,32.71484375,-148.92578125,45.8984375
1510174047493.8228,99.12109375,31.25,32.71484375,273.4375,3.90625
1510174047497.729,94.7265625,30.76171875,31.25,351.5625,29.296875
1510174047501.6353,-34.1796875,29.296875,30.2734375,-111.81640625,43.45703125
1510174047505.5415,-43.9453125,26.3671875,31.25,-241.69921875,-13.18359375
1510174047509.4478,51.7578125,26.85546875,31.73828125,118.65234375,3.41796875
1510174047513.354,92.28515625,29.78515625,29.78515625,394.53125,54.19921875
1510174047517.2603,-19.04296875,34.1796875,31.73828125,35.64453125,7.8125
1510174047534.8271,-77.63671875,35.15625,31.73828125,-301.7578125,-37.59765625
1510174047538.7334,10.7421875,32.71484375,24.90234375,-29.296875,-23.4375
1510174047542.6396,86.42578125,31.73828125,19.04296875,354.4921875,-1.46484375
1510174047546.546,7.8125,34.66796875,21.484375,157.2265625,25.390625
1510174047550.4521,-86.42578125,35.64453125,24.4140625,-271.97265625,9.765625
1510174047554.3584,-23.4375,42.48046875,24.90234375,-160.64453125,-25.390625
1510174047558.2646,73.73046875,59.5703125,23.4375,262.20703125,16.11328125
1510174047562.171,36.1328125,62.98828125,24.4140625,277.34375,53.7109375
1510174047566.0771,-92.28515625,60.546875,24.90234375,-193.359375,6.34765625
1510174047569.9834,-58.10546875,60.05859375,23.4375,-256.8359375,-11.23046875
1510174047573.8896,55.17578125,62.5,21.97265625,165.0390625,18.06640625
1510174047577.796,70.3125,61.5234375,18.06640625,371.58203125,0.9765625
1510174047594.3901,-50.29296875,64.453125,19.53125,-70.80078125,-17.08984375
1510174047598.2964,-64.453125,65.4296875,23.92578125,-291.015625,-19.04296875
1510174047602.2026,35.15625,58.59375,21.484375,59.5703125,-15.13671875
1510174047606.109,93.26171875,49.31640625,16.6015625,395.01953125,26.3671875
1510174047610.0151,-6.8359375,39.55078125,16.6015625,79.58984375,35.15625
1510174047613.9214,-74.21875,38.57421875,14.16015625,-304.19921875,-20.99609375
1510174047617.8276,12.20703125,36.62109375,15.13671875,-64.94140625,-36.62109375
1510174047621.734,89.35546875,31.25,14.6484375,345.21484375,8.30078125
1510174047625.6401,16.11328125,34.1796875,17.08984375,187.98828125,29.78515625
1510174047629.5464,-93.26171875,40.52734375,23.4375,-296.875,-29.78515625
1510174047633.4526,-38.0859375,39.55078125,18.5546875,-203.125,-53.7109375
1510174047637.359,59.5703125,37.59765625,14.16015625,271.484375,-2.9296875
1510174047639.4224,29.296875,35.15625,16.11328125,283.69140625,9.765625
1510174047643.3286,-92.7734375,36.62109375,20.01953125,-214.84375,-20.5078125
1510174047647.2349,-73.73046875,39.0625,18.06640625,-272.94921875,-19.53125
1510174047651.141,31.73828125,36.1328125,14.6484375,149.4140625,-18.06640625
1510174047655.0474,68.84765625,34.66796875,13.18359375,360.83984375,20.5078125
1510174047658.9536,-38.0859375,35.15625,13.671875,-63.96484375,40.0390625
1510174047662.8599,-74.70703125,34.66796875,14.16015625,-309.08203125,8.7890625
1510174047666.766,24.4140625,34.1796875,16.11328125,52.734375,51.7578125
1510174047670.6724,90.33203125,33.69140625,16.11328125,393.5546875,98.14453125
1510174047674.5786,-5.859375,34.1796875,13.671875,90.8203125,71.77734375
1510174047678.4849,-87.890625,33.203125,10.25390625,-290.52734375,31.73828125
1510174047682.391,-18.5546875,27.83203125,11.23046875,-79.58984375,5.37109375
1510174047669.4253,68.359375,21.484375,15.625,317.3828125,12.6953125
1510174047673.3315,11.23046875,32.71484375,11.23046875,184.08203125,28.80859375
1510174047677.2378,-106.93359375,42.96875,8.30078125,-255.37109375,14.16015625
1510174047681.144,-44.43359375,37.109375,12.6953125,-180.17578125,14.16015625
1510174047685.0503,62.01171875,38.57421875,8.7890625,254.39453125,56.15234375
1510174047688.9565,41.50390625,43.45703125,3.90625,327.63671875,77.1484375
1510174047692.8628,-74.70703125,44.43359375,7.32421875,-143.5546875,31.25
1510174047696.769,-70.3125,41.015625,6.8359375,-276.85546875,-26.85546875
1510174047700.6753,33.69140625,39.0625,3.41796875,114.74609375,4.8828125
1510174047704.5815,75.68359375,41.9921875,1.46484375,384.765625,59.5703125
1510174047708.4878,-39.55078125,42.96875,7.8125,-2.9296875,43.9453125
1510174047712.394,-86.42578125,41.50390625,13.671875,-309.08203125,-27.34375
1510174047714.455,6.8359375,38.57421875,10.25390625,-29.78515625,-31.25
1510174047718.3613,85.9375,40.0390625,7.8125,365.72265625,13.671875
1510174047722.2676,5.37109375,42.96875,7.8125,156.73828125,9.765625
1510174047726.1738,-84.9609375,43.45703125,7.32421875,-283.69140625,-24.4140625
1510174047730.08,-0.48828125,47.8515625,7.8125,-115.234375,-27.83203125
1510174047733.9863,100.5859375,50.78125,7.32421875,326.171875,6.8359375
1510174047737.8926,55.6640625,48.33984375,8.30078125,270.01953125,11.71875
1510174047741.7988,-56.15234375,50.29296875,12.6953125,-214.35546875,-26.3671875
1510174047745.705,-23.92578125,53.22265625,12.6953125,-225.09765625,-29.296875
1510174047749.6113,75.1953125,47.8515625,9.27734375,232.91015625,40.52734375
1510174047753.5176,76.171875,42.48046875,7.32421875,377.9296875,48.828125
1510174047757.4238,-51.26953125,44.43359375,6.8359375,-111.328125,-8.7890625
1510174047760.1511,-64.453125,47.36328125,2.9296875,-289.55078125,-29.296875
1510174047764.0574,28.80859375,42.48046875,-2.9296875,94.23828125,15.625
1510174047767.9636,72.75390625,36.1328125,0.9765625,381.34765625,22.4609375
1510174047771.8699,-32.71484375,37.109375,4.8828125,11.23046875,-15.625
1510174047775.7761,-91.30859375,40.52734375,5.37109375,-319.3359375,-23.4375
1510174047779.6824,-4.39453125,41.015625,6.34765625,-36.1328125,-30.2734375
1510174047783.5886,77.1484375,39.55078125,4.39453125,357.421875,24.4140625
1510174047787.4949,0.9765625,40.52734375,8.7890625,138.671875,-12.20703125
1510174047791.4011,-94.7265625,44.43359375,15.13671875,-296.38671875,-74.70703125
1510174047795.3074,-26.85546875,42.96875,12.6953125,-135.25390625,-73.2421875
1510174047799.2136,70.80078125,39.0625,10.7421875,304.6875,-11.71875
1510174047803.1199,37.59765625,39.55078125,13.18359375,295.41015625,39.0625
1510174047804.682,-82.03125,40.0390625,16.11328125,-183.10546875,-11.23046875
1510174047808.5881,-46.875,41.015625,17.08984375,-222.65625,-17.08984375
1510174047812.4944,60.546875,39.0625,17.578125,180.17578125,14.16015625
1510174047816.4006,67.3828125,34.1796875,18.06640625,371.58203125,69.82421875
1510174047820.307,-57.12890625,31.73828125,21.97265625,-52.24609375,26.85546875
1510174047824.2131,-80.56640625,35.64453125,21.484375,-278.3203125,-33.69140625
1510174047828.1194,16.6015625,37.59765625,18.06640625,56.15234375,-36.62109375
1510174047832.0256,73.2421875,35.64453125,16.11328125,361.328125,-19.04296875
1510174047835.932,-31.73828125,33.69140625,12.6953125,75.1953125,4.39453125
1510174047839.8381,-109.375,32.2265625,10.7421875,-269.04296875,-16.11328125
1510174047843.7444,-20.99609375,34.66796875,8.30078125,-37.59765625,-26.3671875
1510174047847.6506,66.89453125,38.57421875,8.7890625,360.83984375,19.53125
1510174047849.719,0.9765625,42.96875,14.6484375,212.40234375,35.15625
1510174047853.6252,-106.93359375,45.41015625,16.11328125,-241.2109375,-3.41796875
1510174047857.5315,-57.12890625,42.96875,13.18359375,-159.66796875,-0.48828125
1510174047861.4377,42.96875,41.50390625,9.765625,276.85546875,44.921875
1510174047865.344,20.01953125,45.41015625,9.27734375,320.80078125,49.8046875
1510174047869.2502,-102.5390625,49.8046875,14.6484375,-150.390625,6.8359375
1510174047873.1565,-81.54296875,52.24609375,14.6484375,-259.27734375,-34.1796875
1510174047877.0627,24.90234375,52.734375,10.25390625,142.08984375,-8.30078125
1510174047880.969,47.8515625,50.29296875,11.71875,405.76171875,37.109375
1510174047884.8752,-68.359375,50.29296875,16.6015625,-12.6953125,20.99609375
1510174047888.7815,-103.02734375,47.8515625,14.6484375,-296.38671875,-20.01953125
1510174047892.6877,-7.8125,42.48046875,7.32421875,37.59765625,-27.34375
1510174047909.758,63.96484375,38.0859375,8.30078125,407.71484375,30.2734375
1510174047913.6643,-27.83203125,39.0625,11.71875,125.0,38.57421875
1510174047917.5706,-120.60546875,46.875,2.9296875,-293.45703125,2.9296875
1510174047921.4768,-42.96875,49.8046875,1.46484375,-80.078125,-20.01953125
1510174047925.383,48.828125,49.8046875,1.46484375,353.02734375,5.859375
1510174047929.2893,-10.7421875,54.6875,-1.953125,222.65625,-15.13671875
1510174047933.1956,-125.0,55.17578125,24.90234375,-262.6953125,-67.3828125
1510174047937.1018,-72.75390625,49.8046875,49.8046875,-183.59375,-82.03125
1510174047941.008,38.57421875,42.48046875,34.1796875,264.16015625,-22.4609375
1510174047944.9143,34.66796875,42.48046875,23.4375,333.49609375,35.15625
1510174047948.8206,-90.8203125,50.78125,21.484375,-140.13671875,-11.71875
1510174047952.7268,-84.47265625,53.22265625,20.5078125,-256.34765625,-20.5078125
1510174047954.2905,21.97265625,60.546875,16.6015625,135.7421875,-8.30078125
1510174047958.1968,57.6171875,73.73046875,13.671875,387.20703125,21.484375
1510174047962.103,-56.15234375,75.68359375,12.6953125,-8.30078125,15.625
1510174047966.0093,-109.375,66.89453125,12.20703125,-304.19921875,-35.15625
1510174047969.9155,-23.92578125,64.453125,13.671875,-6.34765625,0.48828125
1510174047973.8218,47.8515625,72.265625,15.625,353.02734375,39.55078125
1510174047977.728,-31.25,78.125,16.11328125,117.1875,41.50390625
1510174047981.6343,-117.67578125,72.75390625,13.18359375,-291.50390625,-14.6484375
1510174047985.5405,-48.33984375,65.91796875,11.71875,-114.2578125,-52.734375
1510174047989.4468,45.41015625,58.59375,8.7890625,292.48046875,25.87890625
1510174047993.353,3.90625,50.78125,6.34765625,248.046875,54.19921875
1510174047997.2593,-107.91015625,48.828125,13.18359375,-184.08203125,1.953125
1510174047999.3223,-62.98828125,42.96875,13.671875,-194.3359375,-34.66796875
1510174048003.2285,45.41015625,36.62109375,9.765625,223.6328125,5.859375
1510174048007.1348,50.78125,37.59765625,9.765625,373.046875,6.34765625
1510174048011.041,-70.80078125,40.0390625,11.71875,-81.54296875,-34.1796875
1510174048014.9473,-81.0546875,38.0859375,11.71875,-262.20703125,8.7890625
1510174048018.8535,26.3671875,36.1328125,13.18359375,106.93359375,-5.37109375
1510174048022.7598,78.61328125,35.64453125,12.6953125,397.4609375,-2.44140625
1510174048026.666,-32.2265625,30.2734375,13.671875,55.6640625,23.4375
1510174048030.5723,-95.703125,28.3203125,31.73828125,-290.52734375,-21.97265625
1510174048034.4785,-9.765625,31.73828125,32.71484375,-46.38671875,0.0
1510174048038.3848,70.3125,31.25,20.01953125,375.9765625,61.5234375
1510174048042.291,-6.8359375,31.73828125,21.484375,191.40625,30.2734375
1510174048044.8728,-110.3515625,31.73828125,22.4609375,-270.5078125,-13.671875
1510174048048.779,-43.45703125,31.25,20.01953125,-137.20703125,-7.8125
1510174048052.6853,57.12890625,36.1328125,18.5546875,313.4765625,41.015625
1510174048056.5916,20.01953125,41.015625,20.01953125,302.734375,81.54296875
1510174048060.4978,-110.83984375,40.0390625,24.90234375,-191.89453125,28.80859375
1510174048064.404,-90.33203125,35.64453125,24.4140625,-242.1875,-14.6484375
1510174048068.3103,21.484375,38.0859375,21.97265625,183.10546875,25.390625
1510174048072.2166,51.7578125,42.96875,20.01953125,375.0,46.875
1510174048076.1228,-70.3125,39.0625,20.5078125,-89.35546875,25.390625
1510174048080.029,-93.26171875,29.296875,19.04296875,-303.7109375,14.16015625
1510174048083.9353,33.203125,26.3671875,14.6484375,106.93359375,16.11328125
1510174048087.8416,85.44921875,36.62109375,7.32421875,400.87890625,1.46484375
1510174048089.386,-43.9453125,39.55078125,1.953125,47.36328125,15.625
1510174048093.2922,-114.74609375,34.66796875,2.44140625,-309.5703125,30.2734375
1510174048097.1985,-42.48046875,38.57421875,-3.41796875,-93.26171875,36.62109375
1510174048101.1047,27.83203125,40.0390625,-10.7421875,281.73828125,92.28515625
1510174048105.011,-33.69140625,45.41015625,-10.7421875,123.046875,62.98828125
1510174048108.9172,-155.2734375,54.19921875,-10.25390625,-340.33203125,-15.625
1510174048112.8235,-113.76953125,53.7109375,-9.27734375,-254.8828125,-5.859375
1510174048116.7297,-21.484375,51.26953125,-12.6953125,172.36328125,26.3671875
1510174048120.636,-40.52734375,55.6640625,-18.5546875,192.87109375,30.76171875
1510174048124.5422,-160.15625,50.29296875,-20.01953125,-269.04296875,-25.87890625
1510174048128.4485,-145.01953125,42.96875,-20.01953125,-329.1015625,-25.390625
1510174048132.3547,-33.69140625,49.8046875,-22.4609375,77.1484375,28.3203125
1510174048134.4175,-16.11328125,49.8046875,-18.5546875,294.921875,77.63671875
1510174048138.3237,-133.30078125,48.33984375,-12.20703125,-117.67578125,20.5078125
1510174048142.23,-169.921875,47.36328125,-16.6015625,-393.5546875,-44.43359375
1510174048146.1362,-76.171875,41.015625,-15.625,-60.546875,7.32421875
1510174048150.0425,-9.27734375,40.52734375,-10.7421875,304.6875,49.31640625
1510174048153.9487,-108.3984375,45.41015625,-11.23046875,28.80859375,43.9453125
1510174048157.855,-183.59375,48.828125,-5.859375,-376.46484375,-12.20703125
1510174048161.7612,-96.6796875,49.31640625,-3.41796875,-197.75390625,-67.87109375
1510174048165.6675,-0.9765625,51.26953125,-9.27734375,245.60546875,-25.390625
1510174048169.5737,-49.8046875,48.33984375,-8.30078125,194.82421875,-9.27734375
1510174048173.48,-153.80859375,44.43359375,-5.859375,-294.43359375,-69.3359375
1510174048177.3862,-99.12109375,40.52734375,-10.25390625,-269.53125,-75.1953125
1510174048179.45,10.25390625,37.109375,-11.23046875,186.03515625,-16.11328125
1510174048183.3562,3.41796875,36.1328125,-8.7890625,302.734375,23.92578125
1510174048187.2625,-120.1171875,38.0859375,-4.39453125,-171.38671875,-30.2734375
1510174048191.1687,-115.234375,39.55078125,-3.90625,-313.4765625,-57.12890625
1510174048195.075,-13.18359375,36.62109375,-5.37109375,90.8203125,5.859375
1510174048198.9812,34.1796875,37.59765625,-4.8828125,361.81640625,64.94140625
1510174048202.8875,-68.84765625,39.0625,0.48828125,-36.1328125,18.5546875
1510174048206.7937,-112.3046875,39.55078125,3.41796875,-358.3984375,-46.875
1510174048210.7,-19.53125,42.48046875,2.44140625,-22.4609375,-24.90234375
1510174048214.6062,55.6640625,41.9921875,5.37109375,368.65234375,0.48828125
1510174048218.5125,-19.53125,41.50390625,12.20703125,116.69921875,-34.1796875
1510174048222.4187,-104.4921875,44.43359375,14.6484375,-303.22265625,-44.43359375
1510174048224.487,-36.1328125,43.9453125,8.7890625,-139.6484375,-30.2734375
1510174048228.3933,56.640625,36.1328125,4.8828125,282.71484375,18.06640625
1510174048232.2996,17.578125,36.62109375,8.30078125,227.05078125,24.90234375
1510174048236.2058,-99.609375,39.55078125,9.765625,-252.9296875,-41.50390625
1510174048240.112,-65.4296875,39.0625,10.25390625,-246.09375,-67.3828125
1510174048244.0183,35.64453125,35.64453125,9.27734375,189.453125,-28.3203125
1510174048247.9246,42.96875,38.57421875,11.23046875,315.91796875,-11.71875
1510174048251.8308,-72.75390625,44.921875,12.20703125,-133.7890625,-29.296875
1510174048255.737,-76.66015625,44.43359375,14.16015625,-272.4609375,-52.24609375
1510174048259.6433,19.04296875,44.43359375,11.71875,95.703125,-58.10546875
1510174048263.5496,62.98828125,47.36328125,5.859375,373.046875,-18.5546875
1510174048267.4558,-36.1328125,50.29296875,10.25390625,34.66796875,-18.06640625
1510174048284.5242,-102.5390625,50.29296875,13.18359375,-303.7109375,-63.4765625
1510174048288.4304,-26.3671875,43.9453125,11.23046875,-54.19921875,-41.9921875
1510174048292.3367,52.734375,39.55078125,10.25390625,340.33203125,24.90234375
1510174048296.243,-20.01953125,41.9921875,15.13671875,170.41015625,47.8515625
1510174048300.1492,-118.65234375,40.52734375,21.484375,-259.27734375,-6.8359375
1510174048304.0554,-51.26953125,38.0859375,18.06640625,-154.78515625,-32.2265625
1510174048307.9617,52.734375,37.59765625,16.6015625,261.71875,0.0
1510174048311.868,26.85546875,36.1328125,13.18359375,282.71484375,35.15625
1510174048315.7742,-89.35546875,39.55078125,10.25390625,-176.7578125,-3.41796875
1510174048319.6804,-55.17578125,43.45703125,15.13671875,-237.3046875,-20.01953125
1510174048323.5867,44.921875,37.59765625,14.16015625,175.78125,18.5546875
1510174048327.493,61.03515625,32.71484375,12.6953125,385.7421875,41.50390625
1510174048330.0571,-50.29296875,34.66796875,15.13671875,-45.8984375,35.64453125
1510174048333.9634,-71.77734375,38.57421875,16.11328125,-291.50390625,-8.30078125
1510174048337.8696,28.80859375,40.0390625,11.23046875,59.08203125,-1.46484375
1510174048341.776,86.42578125,38.57421875,5.859375,400.87890625,25.390625
1510174048345.6821,-18.5546875,40.0390625,11.71875,80.078125,9.27734375
1510174048349.5884,-93.75,43.45703125,16.11328125,-305.6640625,-24.4140625
1510174048353.4946,-12.20703125,44.43359375,16.11328125,-83.984375,-15.625
1510174048357.401,67.87109375,43.9453125,17.08984375,335.9375,25.87890625
1510174048361.3071,-6.8359375,45.41015625,21.97265625,209.9609375,27.83203125
1510174048365.2134,-117.1875,49.8046875,27.83203125,-274.4140625,-32.71484375
1510174048369.1196,-58.59375,51.7578125,26.3671875,-188.96484375,-21.484375
1510174048373.026,40.0390625,49.31640625,20.01953125,288.57421875,29.296875
1510174048374.589,20.5078125,48.828125,18.06640625,323.73046875,26.85546875
1510174048378.4954,-96.6796875,50.78125,20.99609375,-160.64453125,11.71875
1510174048382.4016,-79.58984375,50.29296875,21.97265625,-239.2578125,0.9765625
1510174048386.3079,25.87890625,49.8046875,21.97265625,157.71484375,-20.5078125
1510174048390.214,51.7578125,48.828125,24.90234375,371.58203125,-10.7421875
1510174048394.1204,-58.59375,51.7578125,29.296875,-43.9453125,-15.625
1510174048398.0266,-92.28515625,58.59375,27.34375,-312.98828125,-57.12890625
1510174048401.9329,5.37109375,62.01171875,24.90234375,28.80859375,-35.15625
1510174048405.839,69.3359375,58.59375,20.5078125,380.37109375,16.11328125
1510174048409.7454,-31.25,52.24609375,17.08984375,95.21484375,40.0390625
1510174048413.6516,-104.98046875,47.36328125,16.11328125,-267.08984375,23.4375
1510174048417.5579,-23.4375,47.36328125,11.71875,-63.4765625,11.71875
1510174048419.6182,67.87109375,49.8046875,9.27734375,353.02734375,42.48046875
1510174048423.5244,15.625,49.31640625,9.765625,271.484375,17.578125
1510174048427.4307,-97.65625,47.36328125,12.20703125,-196.2890625,-12.6953125
1510174048431.337,-52.24609375,45.41015625,13.671875,-170.41015625,-9.765625
1510174048435.2432,48.33984375,44.921875,14.16015625,257.32421875,-15.13671875
1510174048439.1494,41.015625,46.875,16.11328125,365.72265625,15.625
1510174048443.0557,-84.47265625,47.8515625,19.04296875,-90.33203125,32.2265625
1510174048446.962,-89.35546875,47.8515625,20.99609375,-225.5859375,17.08984375
1510174048450.8682,12.6953125,41.9921875,16.6015625,119.140625,-7.32421875
1510174048454.7744,54.6875,37.59765625,11.23046875,385.7421875,24.4140625
1510174048458.6807,-50.29296875,40.52734375,14.6484375,63.96484375,44.921875
1510174048462.587,-93.75,38.57421875,16.11328125,-249.0234375,-20.5078125
1510174048464.652,3.41796875,38.0859375,13.18359375,32.71484375,9.765625
1510174048468.5583,81.0546875,40.0390625,10.7421875,399.4140625,73.2421875
1510174048472.4646,-4.39453125,40.52734375,10.7421875,158.69140625,72.75390625
1510174048476.3708,-93.75,42.96875,14.16015625,-264.6484375,14.6484375
1510174048480.277,-16.6015625,41.9921875,11.71875,-105.95703125,4.39453125
1510174048484.1833,77.1484375,40.0390625,9.27734375,329.1015625,45.41015625
1510174048488.0896,30.2734375,39.0625,11.23046875,287.109375,75.68359375
1510174048491.9958,-90.8203125,44.921875,14.6484375,-200.68359375,28.3203125
1510174048495.902,-51.26953125,49.31640625,11.23046875,-226.5625,2.9296875
1510174048499.8083,47.8515625,41.50390625,5.37109375,222.65625,32.71484375
1510174048503.7146,50.29296875,39.0625,9.765625,382.8125,31.73828125
1510174048507.6208,-66.89453125,45.8984375,15.13671875,-93.26171875,18.5546875
1510174048509.6843,-87.40234375,45.41015625,13.671875,-287.59765625,-24.4140625
1510174048513.5906,9.765625,40.52734375,12.6953125,86.9140625,-38.57421875
1510174048517.4968,60.05859375,39.0625,16.11328125,383.30078125,20.99609375
1510174048521.403,-47.8515625,41.9921875,21.484375,36.1328125,36.1328125
1510174048525.3093,-106.93359375,42.48046875,22.94921875,-301.26953125,-20.01953125
1510174048529.2156,-15.13671875,45.41015625,21.97265625,-36.62109375,13.18359375
1510174048533.1218,63.4765625,46.875,22.94921875,354.98046875,54.19921875
1510174048537.028,-19.53125,44.43359375,19.53125,135.7421875,2.44140625
1510174048540.9343,-119.140625,45.8984375,16.6015625,-304.19921875,-12.20703125
1510174048544.8406,-49.8046875,44.43359375,15.13671875,-136.23046875,16.6015625
1510174048548.7468,53.22265625,39.55078125,12.6953125,285.64453125,24.4140625
1510174048552.653,22.94921875,40.0390625,11.71875,279.296875,49.31640625
1510174048554.7144,-100.5859375,40.52734375,16.11328125,-192.87109375,24.90234375
1510174048558.6206,-70.80078125,41.015625,18.06640625,-236.81640625,-2.9296875
1510174048562.5269,37.109375,41.50390625,18.5546875,180.6640625,35.15625
1510174048566.433,56.15234375,36.62109375,20.99609375,365.72265625,47.36328125
1510174048570.3394,-58.59375,41.015625,20.5078125,-52.734375,43.9453125
1510174048574.2456,-76.171875,46.875,20.5078125,-275.390625,46.38671875
1510174048578.1519,22.4609375,42.48046875,19.04296875,44.43359375,25.87890625
1510174048582.058,83.49609375,37.59765625,18.06640625,349.609375,32.71484375
1510174048585.9644,-12.6953125,36.62109375,19.53125,78.125,29.296875
1510174048589.8706,-81.54296875,36.1328125,21.484375,-266.6015625,-21.484375
1510174048593.7769,5.859375,32.2265625,22.4609375,-50.29296875,-18.06640625
1510174048597.683,90.33203125,31.73828125,19.04296875,351.5625,-4.39453125
1510174048599.2659,28.3203125,38.0859375,21.97265625,221.19140625,-32.71484375
1510174048603.172,-80.56640625,43.45703125,23.4375,-238.76953125,-55.6640625
1510174048607.0784,-29.296875,42.96875,20.01953125,-169.43359375,-23.92578125
1510174048610.9846,72.265625,38.57421875,18.5546875,269.53125,6.34765625
1510174048614.8909,52.734375,40.0390625,18.06640625,330.56640625,-20.5078125
1510174048618.797,-81.54296875,38.0859375,20.01953125,-154.296875,-20.99609375
1510174048622.7034,-78.61328125,33.69140625,17.578125,-283.69140625,-40.0390625
1510174048626.6096,26.3671875,34.1796875,14.6484375,121.58203125,-29.296875
1510174048630.5159,56.640625,33.69140625,41.9921875,390.13671875,26.85546875
1510174048634.422,-62.5,35.15625,52.734375,-28.3203125,-10.25390625
1510174048638.3284,-107.421875,35.15625,37.59765625,-324.21875,-34.1796875
1510174048642.2346,-10.25390625,34.66796875,26.3671875,9.27734375,-18.5546875
1510174048659.789,62.98828125,32.71484375,16.6015625,383.30078125,20.01953125
1510174048663.6953,-28.3203125,32.2265625,17.08984375,99.609375,-3.41796875
1510174048667.6016,-110.3515625,33.203125,16.11328125,-299.8046875,-31.25
1510174048671.5078,-31.73828125,35.15625,10.25390625,-85.44921875,-6.8359375
1510174048675.414,54.6875,37.59765625,3.41796875,332.51953125,0.0
1510174048679.3203,-3.41796875,32.2265625,4.8828125,226.5625,-3.90625
1510174048683.2266,-114.2578125,31.73828125,8.30078125,-254.39453125,-20.99609375
1510174048687.1328,-67.3828125,30.76171875,3.90625,-208.0078125,-25.390625
1510174048691.039,35.64453125,30.2734375,2.44140625,239.2578125,-10.25390625
1510174048694.9453,28.80859375,32.2265625,8.30078125,329.1015625,-34.66796875
1510174048698.8516,-95.703125,33.69140625,11.23046875,-154.78515625,-48.828125
1510174048702.7578,-97.16796875,39.0625,8.30078125,-269.04296875,-29.296875
1510174048704.3267,8.7890625,37.59765625,5.37109375,116.2109375,-11.23046875
1510174048708.233,54.6875,34.1796875,4.39453125,367.1875,11.71875
1510174048712.1392,-56.15234375,40.0390625,9.765625,5.859375,2.9296875
1510174048716.0454,-111.328125,41.015625,9.765625,-302.24609375,-37.59765625
1510174048719.9517,-22.94921875,36.1328125,5.37109375,-14.6484375,-6.8359375
1510174048723.858,48.828125,36.62109375,4.8828125,357.91015625,65.91796875
1510174048727.7642,-40.52734375,35.64453125,7.32421875,117.1875,49.31640625
1510174048731.6704,-130.859375,34.66796875,11.23046875,-288.57421875,8.30078125
1510174048735.5767,-59.08203125,32.71484375,11.23046875,-125.0,5.37109375
1510174048739.483,39.0625,31.73828125,12.6953125,273.92578125,4.39453125
1510174048743.3892,6.8359375,33.203125,12.6953125,231.93359375,10.7421875
1510174048747.2954,-112.79296875,31.25,13.18359375,-222.65625,-41.9921875
1510174048749.359,-80.078125,29.296875,14.16015625,-227.05078125,-36.62109375
1510174048753.2651,28.3203125,33.69140625,10.25390625,210.44921875,31.73828125
1510174048757.1714,43.9453125,35.64453125,10.25390625,378.90625,46.38671875
1510174048761.0776,-71.2890625,40.0390625,16.11328125,-71.77734375,29.296875
1510174048764.984,-91.796875,42.48046875,18.06640625,-281.25,-15.625
1510174048768.8901,6.8359375,38.57421875,17.578125,82.51953125,-9.27734375
1510174048772.7964,57.6171875,38.0859375,13.18359375,381.8359375,47.36328125
1510174048776.7026,-52.734375,41.9921875,15.13671875,51.26953125,57.6171875
1510174048780.609,-123.53515625,43.9453125,18.06640625,-308.10546875,34.66796875
1510174048784.5151,-37.109375,41.50390625,10.7421875,-74.21875,41.9921875
1510174048788.4214,46.38671875,39.55078125,5.37109375,355.95703125,81.0546875
1510174048792.3276,-29.78515625,41.9921875,8.7890625,179.6875,67.3828125
1510174048794.391,-128.41796875,43.45703125,8.7890625,-280.2734375,10.25390625
1510174048798.2974,-63.4765625,41.015625,6.34765625,-170.8984375,-23.4375
1510174048802.2036,37.109375,42.48046875,6.8359375,278.80859375,24.90234375
1510174048806.1099,12.20703125,43.9453125,7.8125,304.19921875,82.03125
1510174048810.016,-112.3046875,41.9921875,11.23046875,-190.91796875,12.6953125
1510174048813.9224,-81.0546875,38.57421875,10.7421875,-255.859375,-28.3203125
1510174048817.8286,35.64453125,36.1328125,8.7890625,170.8984375,-1.953125
1510174048821.7349,58.10546875,35.64453125,8.30078125,377.44140625,22.4609375
1510174048825.641,-53.7109375,38.57421875,10.7421875,-53.7109375,7.8125
1510174048829.5474,-77.63671875,37.59765625,8.30078125,-280.76171875,-32.71484375
1510174048833.4536,21.97265625,35.15625,4.39453125,67.3828125,-20.01953125
1510174048837.3599,73.2421875,33.203125,4.8828125,387.20703125,31.25
1510174048839.4246,-7.32421875,34.1796875,7.32421875,62.5,16.6015625
1510174048843.3308,-52.734375,35.15625,6.34765625,-297.36328125,-16.6015625
1510174048847.237,-30.76171875,35.64453125,4.8828125,-61.03515625,-41.50390625
1510174048851.1433,41.50390625,35.15625,26.3671875,339.84375,5.859375
1510174048855.0496,1.953125,32.2265625,37.109375,208.49609375,19.53125
1510174048858.9558,-107.421875,30.2734375,26.3671875,-256.34765625,-34.66796875
1510174048862.862,-48.828125,28.3203125,20.99609375,-184.08203125,-11.23046875
1510174048866.7683,54.19921875,31.73828125,16.11328125,238.28125,-17.578125
1510174048870.6746,37.59765625,37.109375,13.671875,291.50390625,-2.44140625
1510174048874.5808,-81.0546875,43.9453125,16.6015625,-141.11328125,21.97265625
1510174048878.487,-75.1953125,44.921875,18.5546875,-238.76953125,-32.71484375
1510174048882.3933,20.99609375,42.48046875,14.16015625,145.01953125,-50.29296875
1510174048884.458,52.24609375,44.43359375,11.71875,383.7890625,-0.48828125
1510174048888.3643,-62.5,48.828125,9.27734375,-9.27734375,10.25390625
1510174048892.2705,-104.4921875,51.26953125,6.34765625,-294.921875,-47.8515625
1510174048896.1768,-14.16015625,49.31640625,4.8828125,9.765625,-41.50390625
1510174048900.083,46.38671875,49.8046875,1.953125,367.1875,-2.9296875
1510174048903.9893,-41.50390625,55.17578125,2.44140625,102.05078125,-14.16015625
1510174048907.8955,-117.67578125,56.640625,7.8125,-295.8984375,-13.18359375
1510174048911.8018,-41.50390625,53.7109375,11.23046875,-132.32421875,-6.8359375
1510174048915.708,45.8984375,50.78125,10.25390625,293.45703125,11.71875
1510174048919.6143,0.0,51.26953125,12.6953125,250.0,25.390625
1510174048923.5205,-111.81640625,53.22265625,17.578125,-233.3984375,-33.69140625
1510174048927.4268,-68.359375,48.828125,13.18359375,-212.40234375,-15.13671875
1510174048929.4866,41.50390625,46.875,8.7890625,228.02734375,25.390625
1510174048933.3928,36.1328125,48.33984375,8.30078125,338.8671875,23.4375
1510174048937.299,-89.84375,49.8046875,7.32421875,-132.32421875,-10.25390625
1510174048941.2053,-98.14453125,47.36328125,6.8359375,-282.71484375,-51.26953125
1510174048945.1116,7.32421875,43.45703125,4.8828125,108.3984375,-21.97265625
1510174048949.0178,51.26953125,43.45703125,4.39453125,367.1875,-11.23046875
1510174048952.924,-60.546875,42.48046875,8.30078125,-15.13671875,-48.828125
1510174048956.8303,-107.91015625,41.015625,6.8359375,-337.40234375,-83.0078125
1510174048960.7366,-17.578125,35.15625,0.9765625,-14.6484375,-24.90234375
1510174048964.6428,60.546875,26.85546875,0.48828125,374.0234375,11.23046875
1510174048968.549,-14.16015625,23.92578125,3.41796875,127.9296875,3.41796875
1510174048972.4553,-103.515625,26.3671875,5.859375,-290.0390625,-64.453125
1510174048974.5188,-32.71484375,25.390625,3.41796875,-134.27734375,-68.84765625
1510174048978.425,62.01171875,21.97265625,1.953125,295.41015625,-8.30078125
1510174048982.3313,24.4140625,24.4140625,6.34765625,253.90625,-22.94921875
1510174048986.2375,-93.26171875,27.83203125,9.27734375,-228.02734375,-64.453125
1510174048990.1438,-56.640625,23.92578125,5.37109375,-231.4453125,-90.33203125
1510174048994.05,50.29296875,19.04296875,5.37109375,204.1015625,-50.78125
1510174048997.9563,60.05859375,21.97265625,11.23046875,337.890625,-24.4140625
1510174049001.8625,-65.91796875,23.4375,7.8125,-123.046875,-64.453125
1510174049005.7688,-84.47265625,18.5546875,1.953125,-281.25,-67.87109375
1510174049009.675,7.32421875,15.13671875,1.953125,90.33203125,-48.828125
1510174049013.5813,56.15234375,19.04296875,4.8828125,379.39453125,-8.30078125
1510174049017.4875,-44.921875,21.484375,10.25390625,49.8046875,1.953125
1510174049034.5615,-109.375,20.99609375,13.671875,-302.734375,-67.87109375
1510174049038.4678,-19.04296875,20.01953125,10.7421875,-63.96484375,-81.54296875
1510174049042.374,62.01171875,20.5078125,6.8359375,339.35546875,5.37109375
1510174049046.2803,-8.30078125,31.25,9.27734375,177.24609375,28.3203125
1510174049050.1865,-106.4453125,35.64453125,12.6953125,-267.08984375,-23.92578125
1510174049054.0928,-47.36328125,36.1328125,9.27734375,-175.78125,-45.41015625
1510174049057.999,44.43359375,29.296875,7.32421875,250.9765625,14.6484375
1510174049061.9053,18.06640625,20.01953125,10.7421875,294.43359375,23.92578125
1510174049065.8115,-104.4921875,22.4609375,13.671875,-170.8984375,-33.203125
1510174049069.7178,-85.44921875,24.90234375,13.671875,-248.53515625,-42.96875
1510174049073.624,21.97265625,23.92578125,8.7890625,165.0390625,-8.30078125
1510174049077.5303,45.8984375,23.4375,5.37109375,382.8125,43.45703125
1510174049079.5955,-69.3359375,28.3203125,6.8359375,-39.55078125,50.78125
1510174049083.5017,-91.796875,33.203125,8.30078125,-301.7578125,-7.32421875
1510174049087.408,7.32421875,29.78515625,8.30078125,41.015625,22.94921875
1510174049091.3142,63.96484375,26.85546875,4.8828125,386.71875,60.546875
1510174049095.2205,-31.73828125,28.80859375,-2.44140625,78.61328125,14.6484375
1510174049099.1267,-108.3984375,25.87890625,-3.90625,-309.5703125,-1.46484375
1510174049103.033,-19.04296875,27.83203125,-5.859375,-88.37890625,43.45703125
1510174049106.9392,75.1953125,37.109375,-9.765625,346.6796875,60.546875
1510174049110.8455,-3.90625,42.96875,0.9765625,219.23828125,14.6484375
1510174049114.7517,-122.0703125,45.8984375,8.30078125,-288.57421875,-41.9921875
1510174049118.658,-58.59375,48.33984375,4.8828125,-197.265625,-20.5078125
1510174049122.5642,46.38671875,44.921875,7.32421875,294.921875,29.296875
1510174049124.6255,35.64453125,41.9921875,14.16015625,340.33203125,9.27734375
1510174049128.5317,-80.56640625,36.62109375,21.97265625,-143.5546875,-8.30078125
1510174049132.438,-66.89453125,34.66796875,24.90234375,-230.95703125,6.8359375
1510174049136.3442,38.57421875,35.64453125,26.85546875,183.59375,20.01953125
1510174049140.2505,70.3125,31.25,29.296875,408.203125,31.25
1510174049144.1567,-38.57421875,26.85546875,31.73828125,-5.37109375,12.6953125
1510174049148.063,-74.70703125,31.73828125,35.64453125,-269.53125,-19.04296875
1510174049151.9692,20.5078125,36.62109375,39.0625,64.94140625,-29.296875
1510174049155.8755,86.9140625,27.83203125,41.015625,411.1328125,-20.01953125
1510174049159.7817,0.0,21.484375,41.9921875,134.765625,-21.97265625
1510174049163.688,-67.87109375,21.97265625,41.50390625,-223.6328125,-35.15625
1510174049167.5942,9.27734375,20.5078125,42.48046875,-20.99609375,-25.87890625
1510174049169.657,95.703125,15.13671875,38.0859375,389.6484375,23.92578125
1510174049173.5632,50.29296875,17.578125,50.78125,304.19921875,7.32421875
1510174049177.4695,-62.5,25.87890625,60.546875,-172.36328125,-9.27734375
1510174049181.3757,-17.578125,27.83203125,49.8046875,-151.3671875,-19.04296875
1510174049185.282,78.61328125,26.85546875,42.48046875,261.23046875,-13.18359375
1510174049189.1882,74.21875,28.3203125,39.55078125,381.8359375,13.671875
1510174049193.0945,-39.55078125,28.3203125,42.96875,-68.359375,23.92578125
1510174049197.0007,-41.015625,27.83203125,45.41015625,-219.23828125,-26.3671875
1510174049200.907,56.640625,28.3203125,44.43359375,131.8359375,-70.80078125
1510174049204.8132,97.65625,32.2265625,36.1328125,402.83203125,-17.08984375
1510174049208.7195,-8.30078125,34.1796875,30.2734375,79.1015625,-23.92578125
1510174049212.6257,-61.03515625,31.25,30.76171875,-241.69921875,-44.921875
1510174049214.6892,21.97265625,31.73828125,25.390625,24.4140625,8.7890625
1510174049218.5955,84.47265625,33.69140625,19.53125,403.80859375,42.48046875
1510174049222.5017,0.0,38.0859375,23.4375,189.94140625,35.15625
1510174049226.408,-87.40234375,39.0625,26.85546875,-239.2578125,-26.85546875
1510174049230.3142,-18.06640625,31.25,27.34375,-95.21484375,-46.875
1510174049234.2205,75.1953125,22.4609375,31.73828125,341.796875,-16.6015625
1510174049238.1267,38.57421875,27.83203125,33.69140625,316.40625,-10.25390625
1510174049242.033,-79.1015625,41.015625,36.1328125,-179.6875,-66.40625
1510174049245.9392,-46.38671875,39.55078125,35.15625,-213.37890625,-112.79296875
1510174049249.8455,62.01171875,36.62109375,29.78515625,243.1640625,-71.2890625
1510174049253.7517,78.125,40.0390625,31.25,433.10546875,16.11328125
1510174049257.658,-38.0859375,41.015625,33.203125,-33.69140625,-12.20703125
1510174049274.7322,-63.4765625,38.57421875,30.2734375,-242.67578125,-32.2265625
1510174049278.6384,27.83203125,38.0859375,27.83203125,133.7890625,-2.9296875
1510174049282.5447,85.9375,41.50390625,26.85546875,443.359375,11.71875
1510174049286.451,-10.7421875,44.921875,30.2734375,98.14453125,51.7578125
1510174049290.3572,-73.73046875,44.921875,32.2265625,-269.04296875,6.8359375
1510174049294.2634,4.8828125,40.52734375,31.25,-22.94921875,-25.87890625
1510174049298.1697,78.61328125,39.0625,29.296875,388.671875,48.828125
1510174049302.076,2.44140625,39.55078125,28.3203125,190.4296875,54.19921875
1510174049305.9822,-94.7265625,40.0390625,26.3671875,-263.671875,-25.87890625
1510174049309.8884,-30.76171875,41.015625,24.90234375,-114.74609375,3.41796875
1510174049313.7947,63.96484375,35.64453125,23.4375,310.05859375,58.59375
1510174049317.701,38.0859375,34.66796875,20.01953125,317.3828125,40.0390625
1510174049304.7534,-78.125,42.48046875,20.99609375,-149.90234375,19.04296875
1510174049308.6597,-49.31640625,48.33984375,23.92578125,-211.9140625,-0.48828125
1510174049312.566,55.6640625,50.78125,21.484375,184.08203125,12.6953125
1510174049316.4722,68.84765625,50.29296875,19.53125,389.6484375,101.07421875
1510174049320.3784,-47.8515625,49.31640625,22.4609375,-20.99609375,71.2890625
1510174049324.2847,-78.125,48.33984375,23.92578125,-271.484375,3.90625
1510174049328.191,18.06640625,44.43359375,22.94921875,53.22265625,3.90625
1510174049332.0972,83.49609375,43.45703125,21.97265625,387.6953125,20.01953125
1510174049336.0034,-22.94921875,48.828125,22.4609375,98.14453125,22.4609375
1510174049339.9097,-113.28125,42.48046875,25.87890625,-280.2734375,1.46484375
1510174049343.816,-12.6953125,32.2265625,35.15625,-59.5703125,-13.671875
1510174049347.7222,94.23828125,43.45703125,24.4140625,346.6796875,20.99609375
1510174049349.2847,11.71875,58.10546875,12.6953125,221.19140625,62.5
1510174049353.191,-112.79296875,60.05859375,16.6015625,-257.8125,23.92578125
1510174049357.0972,-60.05859375,49.31640625,19.53125,-209.9609375,-12.20703125
1510174049361.0034,26.85546875,41.50390625,16.11328125,209.9609375,-4.39453125
1510174049364.9097,1.953125,49.31640625,11.23046875,277.34375,26.3671875
1510174049368.816,-109.375,56.15234375,15.13671875,-203.125,2.44140625
1510174049372.7222,-114.74609375,58.59375,14.6484375,-358.88671875,-26.85546875
1510174049376.6284,-22.4609375,54.6875,15.625,44.43359375,26.85546875
1510174049380.5347,9.27734375,56.640625,11.23046875,328.125,61.5234375
1510174049384.441,-118.1640625,60.546875,12.20703125,-89.84375,30.2734375
1510174049388.3472,-156.25,62.01171875,19.04296875,-392.578125,-15.625
1510174049392.2534,-73.2421875,62.5,11.71875,-90.33203125,-23.92578125
1510174049409.3271,-10.25390625,58.59375,4.39453125,273.92578125,35.15625
1510174049413.2334,-97.16796875,62.98828125,1.46484375,15.13671875,44.921875
1510174049417.1396,-185.05859375,65.4296875,0.48828125,-397.94921875,14.6484375
1510174049421.046,-104.00390625,68.359375,-0.9765625,-217.28515625,-9.765625
1510174049424.9521,-15.625,73.2421875,-5.37109375,196.2890625,-4.8828125
1510174049428.8584,-60.05859375,68.359375,0.0,125.0,-30.76171875
1510174049432.7646,-179.6875,65.4296875,4.39453125,-361.328125,-83.49609375
1510174049436.671,-140.625,61.5234375,2.44140625,-322.265625,-37.109375
1510174049440.5771,-22.4609375,62.01171875,3.90625,135.7421875,-1.46484375
1510174049444.4834,-19.04296875,63.4765625,4.39453125,248.53515625,20.01953125
1510174049448.3896,-130.859375,56.15234375,10.25390625,-203.61328125,4.39453125
1510174049452.296,-138.671875,59.5703125,7.32421875,-358.3984375,-51.26953125
1510174049454.3804,-39.55078125,63.96484375,-2.9296875,23.4375,-29.296875
1510174049458.2866,19.04296875,60.546875,-2.44140625,304.6875,28.3203125
1510174049462.1929,-90.8203125,43.9453125,2.9296875,-63.4765625,3.41796875
1510174049466.099,-146.484375,25.390625,6.8359375,-360.3515625,-55.6640625
1510174049470.0054,-51.7578125,17.08984375,6.34765625,-68.359375,-41.9921875
1510174049473.9116,1.46484375,13.18359375,3.41796875,303.7109375,4.39453125
1510174049477.8179,-104.00390625,11.23046875,0.48828125,90.33203125,3.90625
1510174049481.724,-182.12890625,12.20703125,-1.953125,-324.21875,-39.0625
1510174049485.6304,-95.21484375,9.27734375,0.0,-166.015625,-34.1796875
1510174049489.5366,10.7421875,5.859375,4.39453125,230.46875,-41.015625
1510174049493.4429,-10.25390625,9.765625,12.20703125,211.9140625,-22.94921875
1510174049497.349,-119.140625,12.20703125,20.5078125,-208.984375,-5.859375
1510174049499.3906,-88.8671875,10.25390625,20.99609375,-254.8828125,-46.38671875
1510174049503.2969,21.97265625,6.34765625,19.04296875,160.15625,-2.44140625
1510174049507.2031,46.38671875,10.25390625,22.4609375,350.09765625,45.41015625
1510174049511.1094,-69.3359375,14.16015625,25.87890625,-87.40234375,-3.41796875
1510174049515.0156,-85.9375,10.7421875,22.94921875,-297.8515625,-51.26953125
1510174049518.9219,27.83203125,12.6953125,21.97265625,67.3828125,-9.27734375
1510174049522.8281,89.84375,18.06640625,19.04296875,384.765625,23.4375
1510174049526.7344,-9.765625,20.01953125,19.04296875,75.68359375,24.4140625
1510174049530.6406,-79.58984375,21.484375,23.92578125,-290.0390625,-27.34375
1510174049534.5469,-2.9296875,22.4609375,18.5546875,-68.359375,-26.85546875
1510174049538.4531,72.265625,21.97265625,10.7421875,371.09375,52.734375
1510174049542.3594,-9.765625,21.484375,31.25,208.49609375,48.33984375
1510174049544.4229,-119.140625,23.4375,57.12890625,-257.32421875,12.20703125
1510174049548.329,-58.59375,25.390625,40.52734375,-167.96875,-30.2734375
1510174049552.2354,48.828125,24.4140625,26.3671875,275.87890625,17.08984375
1510174049556.1416,29.296875,22.4609375,35.15625,313.4765625,60.546875
1510174049560.0479,-89.84375,21.484375,35.64453125,-173.828125,-8.30078125
1510174049563.954,-62.01171875,20.99609375,32.71484375,-242.1875,-58.59375
1510174049567.8604,45.41015625,16.11328125,29.78515625,178.22265625,21.484375
1510174049571.7666,65.91796875,14.16015625,26.85546875,390.13671875,55.17578125
1510174049575.6729,-44.43359375,21.97265625,29.296875,-53.22265625,-1.953125
1510174049579.579,-75.1953125,25.390625,31.73828125,-290.52734375,20.5078125
1510174049583.4854,14.6484375,23.92578125,29.296875,85.9375,52.24609375
1510174049587.3916,72.265625,24.4140625,22.94921875,394.04296875,76.171875
1510174049589.4583,-25.390625,26.85546875,21.484375,88.37890625,91.796875
1510174049593.3645,-97.16796875,29.296875,22.94921875,-267.08984375,52.24609375
1510174049597.2708,-13.671875,29.78515625,19.04296875,-50.29296875,3.90625
1510174049601.177,70.80078125,25.390625,16.11328125,342.7734375,-6.8359375
1510174049605.0833,5.859375,24.4140625,19.53125,218.26171875,24.90234375
1510174049608.9895,-102.5390625,25.87890625,20.5078125,-234.375,37.109375
1510174049612.8958,-40.52734375,28.3203125,14.6484375,-181.15234375,2.9296875
1510174049616.802,62.98828125,29.78515625,12.6953125,231.93359375,-19.04296875
1510174049620.7083,46.38671875,30.76171875,12.6953125,296.38671875,-10.7421875
1510174049624.6145,-67.87109375,31.73828125,14.6484375,-133.30078125,3.41796875
1510174049628.5208,-50.78125,32.71484375,20.01953125,-239.2578125,-39.55078125
1510174049632.427,46.38671875,32.71484375,18.06640625,145.99609375,-2.44140625
1510174049634.487,76.66015625,28.3203125,15.13671875,400.87890625,64.94140625
1510174049638.3933,-31.73828125,27.34375,17.578125,15.625,33.69140625
1510174049642.2996,-81.0546875,30.2734375,18.5546875,-283.69140625,-26.3671875
1510174049646.2058,2.44140625,28.80859375,13.671875,5.37109375,-37.109375
1510174049650.112,68.84765625,28.80859375,9.765625,378.41796875,46.875
1510174049654.0183,-19.04296875,34.1796875,13.671875,125.9765625,22.94921875
1510174049657.9246,-110.83984375,35.64453125,13.18359375,-287.59765625,-20.01953125
1510174049661.8308,-32.71484375,39.0625,8.30078125,-136.23046875,-26.85546875
1510174049665.737,63.96484375,41.9921875,5.37109375,299.8046875,-17.578125
1510174049669.6433,5.37109375,36.1328125,13.671875,285.64453125,53.22265625
1510174049673.5496,-121.09375,29.296875,18.5546875,-207.03125,-15.13671875
1510174049677.4558,-69.3359375,27.83203125,15.625,-208.49609375,-22.94921875
1510174049679.2986,51.26953125,29.296875,14.6484375,229.00390625,25.390625
1510174049683.2048,55.17578125,31.25,14.16015625,354.00390625,23.4375
1510174049687.111,-58.10546875,32.2265625,18.06640625,-101.5625,-9.27734375
1510174049691.0173,-65.4296875,29.78515625,20.99609375,-267.578125,-37.59765625
1510174049694.9236,29.78515625,28.80859375,19.04296875,122.0703125,11.71875
1510174049698.8298,77.1484375,30.2734375,15.13671875,396.484375,34.66796875
1510174049702.736,-28.80859375,34.1796875,18.5546875,14.16015625,-14.6484375
1510174049706.6423,-93.26171875,36.62109375,20.99609375,-322.265625,-71.77734375
1510174049710.5486,-9.27734375,31.25,19.04296875,-13.18359375,-18.06640625
1510174049714.4548,66.89453125,28.80859375,18.06640625,387.6953125,47.8515625
1510174049718.361,-18.5546875,36.62109375,19.04296875,149.90234375,54.19921875
1510174049722.2673,-112.3046875,34.1796875,20.99609375,-274.90234375,57.12890625
1510174049724.3096,-39.0625,26.85546875,19.53125,-125.9765625,43.9453125
1510174049728.2158,57.6171875,23.92578125,17.578125,301.26953125,63.96484375
1510174049732.122,25.87890625,20.5078125,15.13671875,261.23046875,50.29296875
1510174049736.0283,-83.49609375,23.4375,17.08984375,-210.44921875,-14.16015625
1510174049739.9346,-50.78125,32.71484375,16.6015625,-216.30859375,-34.1796875
1510174049743.8408,48.33984375,37.59765625,13.18359375,199.70703125,18.06640625
1510174049747.747,52.24609375,34.1796875,14.6484375,335.9375,43.9453125
1510174049751.6533,-68.84765625,36.62109375,19.04296875,-110.83984375,28.3203125
1510174049755.5596,-74.70703125,37.109375,20.99609375,-271.97265625,0.0
1510174049759.4658,32.2265625,33.69140625,17.578125,90.33203125,-28.3203125
1510174049763.372,89.35546875,37.109375,14.16015625,394.53125,20.01953125
1510174049767.2783,-5.859375,39.55078125,15.625,76.171875,25.87890625
1510174049784.3523,-71.77734375,33.203125,16.6015625,-269.53125,3.41796875
1510174049788.2585,6.34765625,29.296875,15.625,-29.78515625,16.6015625
1510174049792.1648,81.54296875,34.66796875,13.18359375,359.375,44.921875
1510174049796.071,7.8125,40.0390625,16.6015625,203.125,50.29296875
1510174049799.9773,-99.12109375,39.55078125,17.08984375,-238.28125,-5.37109375
1510174049803.8835,-42.48046875,39.55078125,15.13671875,-145.5078125,-21.484375
1510174049807.7898,53.7109375,40.0390625,14.16015625,256.8359375,-27.83203125
1510174049811.696,30.76171875,38.57421875,12.20703125,297.8515625,13.18359375
1510174049815.6023,-89.35546875,37.59765625,15.625,-144.04296875,8.7890625
1510174049819.5085,-72.265625,33.69140625,22.94921875,-233.3984375,-39.55078125
1510174049823.4148,29.296875,34.1796875,23.92578125,163.57421875,18.06640625
1510174049827.321,54.6875,38.0859375,22.94921875,379.8828125,68.84765625
1510174049829.405,-53.22265625,39.55078125,29.78515625,-23.92578125,36.62109375
1510174049833.3113,-85.44921875,38.57421875,27.83203125,-279.78515625,-12.6953125
1510174049837.2175,11.23046875,41.015625,20.5078125,52.734375,6.34765625
1510174049841.1238,79.58984375,41.50390625,17.08984375,403.80859375,55.17578125
1510174049845.03,-12.20703125,38.0859375,14.16015625,96.19140625,-7.32421875
1510174049848.9363,-89.35546875,36.1328125,15.625,-288.57421875,-64.94140625
1510174049852.8425,-24.4140625,34.1796875,16.6015625,-82.51953125,-32.71484375
1510174049856.7488,59.08203125,33.203125,16.11328125,347.65625,5.37109375
1510174049860.655,7.8125,36.1328125,18.06640625,241.69921875,43.45703125
1510174049864.5613,-99.609375,39.0625,18.5546875,-260.7421875,-5.859375
1510174049868.4675,-44.921875,41.015625,15.13671875,-198.73046875,-36.62109375
1510174049872.3738,50.29296875,39.55078125,11.71875,265.625,14.6484375
1510174049889.931,34.66796875,33.203125,9.765625,336.42578125,16.6015625
1510174049893.8372,-83.49609375,31.25,10.7421875,-155.2734375,-30.76171875
1510174049897.7434,-77.1484375,36.1328125,13.18359375,-272.94921875,-74.70703125
1510174049901.6497,19.04296875,41.9921875,8.30078125,145.99609375,-20.99609375
1510174049905.556,48.33984375,41.50390625,6.34765625,374.0234375,-0.9765625
1510174049909.4622,-56.640625,41.015625,13.671875,-34.66796875,-32.2265625
1510174049913.3684,-101.5625,43.45703125,13.671875,-306.15234375,-35.64453125
1510174049917.2747,-8.30078125,42.96875,6.34765625,1.46484375,-40.0390625
1510174049921.181,63.96484375,41.50390625,2.9296875,356.4453125,0.9765625
1510174049925.0872,-26.3671875,40.0390625,7.32421875,85.44921875,-4.8828125
1510174049928.9934,-105.95703125,41.50390625,9.765625,-288.57421875,-17.578125
1510174049932.8997,-39.0625,45.8984375,6.34765625,-104.98046875,14.6484375
1510174049919.4507,43.9453125,44.921875,2.9296875,295.8984375,39.55078125
1510174049923.357,5.859375,45.8984375,5.859375,234.86328125,39.0625
1510174049927.2632,-105.95703125,47.36328125,6.34765625,-232.91015625,19.53125
1510174049931.1694,-69.3359375,43.45703125,6.8359375,-214.84375,2.44140625
