timestamp,TP9,AF7,AF8,TP10,Right AUX
1510192043.7243803,-29.78515625,28.80859375,17.578125,-90.33203125,4.39453125
1510192043.7282865,61.03515625,30.2734375,16.11328125,354.00390625,22.94921875
1510192043.7321928,-0.48828125,32.2265625,17.578125,208.984375,13.18359375
1510192043.736099,-107.421875,31.73828125,16.6015625,-288.0859375,-20.01953125
1510192043.7400053,-46.875,30.2734375,15.13671875,-180.17578125,-8.7890625
1510192043.7439115,69.3359375,33.69140625,17.08984375,295.8984375,56.640625
1510192043.7478178,56.640625,35.64453125,18.5546875,352.5390625,59.5703125
1510192043.751724,-80.078125,35.64453125,16.11328125,-166.015625,-12.6953125
1510192043.7556303,-70.80078125,34.66796875,15.625,-260.7421875,-9.27734375
1510192043.7595365,45.41015625,31.25,16.11328125,160.15625,12.6953125
1510192043.7634428,86.9140625,33.203125,14.6484375,419.921875,44.921875
1510192043.767349,-39.55078125,36.62109375,18.06640625,20.5078125,53.7109375
1510192043.799451,-94.7265625,35.64453125,20.01953125,-295.41015625,-7.8125
1510192043.8033574,18.06640625,33.203125,15.13671875,19.53125,-13.671875
1510192043.8072636,102.05078125,30.76171875,11.71875,402.34375,9.765625
1510192043.8111699,-0.48828125,31.73828125,12.6953125,137.6953125,4.39453125
1510192043.815076,-102.5390625,31.25,11.71875,-296.38671875,-19.04296875
1510192043.8189824,-21.484375,29.296875,11.71875,-125.48828125,-52.734375
1510192043.8228886,84.9609375,30.76171875,11.71875,321.2890625,-27.34375
1510192043.8267949,25.87890625,31.25,15.13671875,285.15625,7.32421875
1510192043.830701,-104.00390625,30.76171875,19.53125,-217.28515625,-52.734375
1510192043.8346074,-54.6875,29.296875,17.578125,-228.02734375,-91.796875
1510192043.8385136,61.03515625,29.78515625,13.18359375,240.234375,6.8359375
1510192043.8424199,63.96484375,30.76171875,11.23046875,402.83203125,36.1328125
1510192043.8294518,-74.21875,31.73828125,15.625,-102.05078125,10.25390625
1510192043.833358,-85.9375,32.71484375,18.06640625,-299.31640625,-8.30078125
1510192043.8372643,23.4375,28.3203125,14.16015625,119.62890625,11.71875
1510192043.8411705,76.66015625,26.85546875,9.27734375,427.734375,49.8046875
1510192043.8450768,-37.109375,31.25,7.8125,39.55078125,32.71484375
1510192043.848983,-110.3515625,31.73828125,10.7421875,-328.61328125,-14.6484375
1510192043.8528893,-15.13671875,30.2734375,8.30078125,-55.17578125,-28.3203125
1510192043.8567955,78.61328125,31.73828125,12.20703125,381.34765625,11.23046875
1510192043.8607018,-13.18359375,32.71484375,16.6015625,175.78125,1.953125
1510192043.864608,-126.46484375,29.78515625,35.64453125,-293.9453125,12.6953125
1510192043.8685143,-45.8984375,28.3203125,49.8046875,-150.87890625,24.4140625
1510192043.8724205,69.82421875,29.78515625,34.66796875,320.3125,39.0625
1510192043.8744838,31.73828125,27.83203125,33.69140625,305.17578125,40.52734375
1510192043.87839,-97.16796875,23.4375,38.57421875,-225.5859375,-20.5078125
1510192043.8822963,-58.59375,30.76171875,30.76171875,-242.67578125,-8.30078125
1510192043.8862026,48.33984375,40.0390625,17.578125,213.37890625,67.3828125
1510192043.8901088,65.91796875,42.96875,18.06640625,378.41796875,50.78125
1510192043.894015,-62.98828125,46.875,16.11328125,-102.5390625,-2.9296875
1510192043.8979213,-96.19140625,48.33984375,6.8359375,-318.359375,5.37109375
1510192043.9018276,17.08984375,45.41015625,1.953125,63.4765625,-14.6484375
1510192043.9057338,85.44921875,43.45703125,2.44140625,383.30078125,-16.6015625
1510192043.90964,-32.2265625,47.36328125,3.90625,28.80859375,12.6953125
1510192043.9135463,-109.375,46.38671875,3.41796875,-323.73046875,-2.44140625
1510192043.9174526,-14.6484375,43.9453125,5.859375,-57.6171875,-34.66796875
1510192043.9195566,72.75390625,44.43359375,4.8828125,362.3046875,57.6171875
1510192043.9234629,-6.34765625,41.9921875,15.13671875,201.66015625,95.703125
1510192043.927369,-125.9765625,41.9921875,30.2734375,-281.73828125,10.25390625
1510192043.9312754,-59.08203125,42.48046875,23.4375,-192.3828125,-3.41796875
1510192043.9351816,56.15234375,40.52734375,13.671875,272.94921875,59.5703125
1510192043.9390879,38.0859375,37.59765625,13.18359375,324.21875,62.5
1510192043.942994,-94.7265625,38.57421875,9.765625,-191.89453125,25.87890625
1510192043.9469004,-73.73046875,40.0390625,5.37109375,-282.71484375,-19.04296875
1510192043.9508066,43.45703125,56.640625,4.8828125,138.18359375,-41.9921875
1510192043.9547129,75.68359375,65.91796875,0.48828125,389.16015625,29.78515625
1510192043.958619,-55.17578125,50.78125,0.48828125,-22.4609375,32.2265625
1510192043.9625254,-98.14453125,46.38671875,2.9296875,-316.40625,-2.9296875
1510192043.9645872,15.13671875,48.33984375,1.953125,20.99609375,15.625
1510192043.9684935,90.8203125,42.96875,0.9765625,396.97265625,27.83203125
1510192043.9723997,-17.578125,38.57421875,8.30078125,116.2109375,22.94921875
1510192043.976306,-111.81640625,39.0625,9.765625,-318.359375,28.80859375
1510192043.9802122,-29.78515625,35.64453125,5.859375,-112.3046875,23.4375
1510192043.9841185,61.5234375,31.73828125,4.39453125,349.609375,17.578125
1510192043.9880247,-5.37109375,33.203125,3.90625,238.28125,44.921875
1510192043.991931,-133.30078125,36.62109375,7.8125,-282.71484375,-14.6484375
1510192043.9958372,-75.1953125,36.1328125,10.7421875,-244.62890625,-29.296875
1510192043.9997435,45.8984375,33.69140625,6.34765625,269.04296875,47.8515625
1510192044.0036497,33.203125,30.76171875,7.8125,378.90625,41.9921875
1510192044.007556,-102.5390625,33.69140625,12.20703125,-153.80859375,26.85546875
1510192044.0096114,-95.21484375,35.15625,10.25390625,-295.8984375,31.25
1510192044.0135176,20.5078125,37.109375,8.30078125,138.18359375,49.8046875
1510192044.0174239,62.5,38.0859375,7.8125,406.25,73.73046875
1510192044.02133,-51.26953125,35.15625,11.23046875,-22.94921875,34.66796875
1510192044.0252364,-93.75,36.62109375,10.25390625,-330.078125,-21.484375
1510192044.0291426,4.8828125,37.109375,6.8359375,14.16015625,8.7890625
1510192044.0330489,83.49609375,37.109375,6.34765625,400.87890625,42.96875
1510192044.036955,-9.27734375,41.015625,7.32421875,103.515625,-5.859375
1510192044.0408614,-107.421875,39.0625,7.8125,-317.87109375,-10.25390625
1510192044.0447676,-40.52734375,35.15625,4.8828125,-107.91015625,-17.08984375
1510192044.0486739,53.7109375,40.0390625,4.39453125,327.1484375,19.04296875
1510192044.05258,13.671875,42.96875,9.27734375,267.08984375,56.15234375
1510192044.0546954,-122.55859375,38.0859375,12.20703125,-240.72265625,13.671875
1510192044.0586016,-81.54296875,33.69140625,15.625,-232.91015625,-25.390625
1510192044.0625079,37.109375,37.109375,13.18359375,227.05078125,-10.25390625
1510192044.066414,32.71484375,42.48046875,3.41796875,370.1171875,38.57421875
1510192044.0703204,-96.6796875,44.921875,3.90625,-115.234375,12.20703125
1510192044.0742266,-101.07421875,38.0859375,8.7890625,-308.10546875,1.46484375
1510192044.0781329,12.20703125,34.1796875,9.765625,82.51953125,16.6015625
1510192044.082039,70.80078125,34.66796875,7.8125,373.046875,8.7890625
1510192044.0859454,-42.96875,32.2265625,8.30078125,21.97265625,13.671875
1510192044.0898516,-110.3515625,32.71484375,8.7890625,-318.84765625,-2.44140625
1510192044.0937579,-14.16015625,35.64453125,4.8828125,-43.45703125,-22.4609375
1510192044.097664,71.2890625,34.66796875,1.953125,379.39453125,22.4609375
1510192044.0993662,-7.8125,34.1796875,4.8828125,185.05859375,79.1015625
1510192044.1032724,-110.3515625,37.109375,8.7890625,-279.296875,1.953125
1510192044.1071787,-36.62109375,35.64453125,6.8359375,-157.71484375,-11.71875
1510192044.111085,69.82421875,30.2734375,4.8828125,328.125,41.50390625
1510192044.1149912,36.1328125,31.25,5.859375,347.65625,33.203125
1510192044.1188974,-97.16796875,34.66796875,8.7890625,-168.9453125,13.671875
1510192044.1228037,-71.2890625,34.1796875,6.8359375,-236.81640625,16.6015625
1510192044.12671,39.0625,34.66796875,2.44140625,213.37890625,29.78515625
1510192044.1306162,49.8046875,37.109375,1.46484375,433.10546875,51.26953125
1510192044.1345224,-85.44921875,37.109375,5.859375,-47.36328125,28.80859375
1510192044.1384287,-118.1640625,31.25,5.859375,-303.22265625,-21.484375
1510192044.142335,-10.7421875,29.296875,2.9296875,91.30859375,-1.953125
1510192044.159407,55.17578125,30.76171875,3.41796875,450.1953125,62.98828125
1510192044.1633132,-53.7109375,27.83203125,4.39453125,89.84375,77.63671875
1510192044.1672194,-123.53515625,28.80859375,5.37109375,-299.31640625,15.625
1510192044.1711257,-28.3203125,30.76171875,7.32421875,-28.80859375,10.25390625
1510192044.175032,68.84765625,28.3203125,8.30078125,412.109375,20.5078125
1510192044.1789382,8.30078125,31.73828125,10.25390625,234.375,26.85546875
1510192044.1828444,-99.12109375,37.109375,14.6484375,-257.8125,42.96875
1510192044.1867507,-34.66796875,34.1796875,12.6953125,-132.32421875,32.2265625
1510192044.190657,72.75390625,30.2734375,11.23046875,351.5625,34.66796875
1510192044.1945632,52.734375,32.2265625,14.16015625,358.3984375,41.015625
1510192044.1984694,-79.58984375,46.875,15.13671875,-176.26953125,3.90625
1510192044.2023757,-63.4765625,61.03515625,13.671875,-241.69921875,-36.62109375
1510192044.2044413,45.8984375,48.828125,11.71875,200.1953125,-7.32421875
1510192044.2083476,76.66015625,35.64453125,11.23046875,418.45703125,-4.39453125
1510192044.2122538,-46.875,32.71484375,11.23046875,-24.90234375,-0.9765625
1510192044.21616,-92.7734375,31.25,12.6953125,-301.7578125,-4.39453125
1510192044.2200663,8.7890625,30.76171875,15.13671875,34.1796875,0.48828125
1510192044.2239726,81.54296875,31.25,13.671875,401.3671875,24.90234375
1510192044.2278788,-20.99609375,32.2265625,13.18359375,93.26171875,12.6953125
1510192044.231785,-107.91015625,37.59765625,13.671875,-316.89453125,7.32421875
1510192044.2356913,-21.97265625,35.15625,13.671875,-93.75,-9.765625
1510192044.2395976,68.359375,32.71484375,11.71875,324.21875,2.9296875
1510192044.2435038,5.859375,36.62109375,11.71875,232.421875,35.15625
1510192044.24741,-111.81640625,37.59765625,14.16015625,-246.09375,0.9765625
1510192044.264482,-56.15234375,34.66796875,12.6953125,-211.42578125,2.9296875
1510192044.2683883,58.59375,31.73828125,8.30078125,245.60546875,11.23046875
1510192044.2722945,55.6640625,34.66796875,5.859375,351.07421875,17.08984375
1510192044.2762008,-77.1484375,39.55078125,7.32421875,-131.8359375,24.90234375
1510192044.280107,-72.75390625,38.57421875,7.8125,-280.76171875,-2.44140625
1510192044.2840133,39.55078125,38.57421875,6.34765625,124.51171875,20.99609375
1510192044.2879195,78.61328125,41.50390625,4.39453125,400.390625,44.921875
1510192044.2918258,-42.48046875,38.57421875,4.39453125,6.8359375,53.22265625
1510192044.295732,-97.65625,37.59765625,3.41796875,-334.9609375,36.62109375
1510192044.2996383,4.39453125,40.0390625,-0.48828125,-35.15625,23.92578125
1510192044.3035445,86.42578125,38.0859375,-0.48828125,405.76171875,57.6171875
1510192044.3074508,-12.6953125,34.1796875,5.37109375,151.85546875,36.62109375
1510192044.294504,-112.3046875,34.1796875,11.71875,-303.22265625,-2.9296875
1510192044.2984102,-32.71484375,32.71484375,12.20703125,-117.1875,-19.53125
1510192044.3023164,72.265625,29.296875,7.32421875,339.84375,0.48828125
1510192044.3062227,24.90234375,31.25,8.7890625,279.296875,26.85546875
1510192044.310129,-106.4453125,34.66796875,13.18359375,-239.2578125,4.39453125
1510192044.3140352,-59.5703125,34.1796875,8.30078125,-238.28125,-22.4609375
1510192044.3179414,59.5703125,34.1796875,5.37109375,233.3984375,39.55078125
1510192044.3218477,56.15234375,35.15625,3.41796875,375.0,38.0859375
1510192044.325754,-85.44921875,32.2265625,4.8828125,-117.1875,12.6953125
1510192044.3296602,-96.19140625,31.25,8.30078125,-299.31640625,37.109375
1510192044.3335664,18.06640625,30.76171875,6.8359375,103.02734375,17.08984375
1510192044.3374727,70.3125,28.80859375,6.8359375,407.2265625,47.36328125
1510192044.3395352,-42.48046875,28.3203125,6.34765625,2.9296875,45.8984375
1510192044.3434415,-104.98046875,28.80859375,2.44140625,-329.58984375,-21.484375
1510192044.3473477,-6.34765625,28.3203125,-0.48828125,-17.08984375,-21.484375
1510192044.351254,83.49609375,28.80859375,-4.39453125,387.6953125,44.43359375
1510192044.3551602,-3.41796875,30.2734375,-3.41796875,178.22265625,38.57421875
1510192044.3590665,-107.91015625,27.34375,0.9765625,-292.48046875,1.46484375
1510192044.3629727,-33.69140625,31.25,0.9765625,-165.0390625,26.3671875
1510192044.366879,76.171875,37.59765625,0.9765625,291.50390625,13.18359375
1510192044.3707852,41.9921875,36.62109375,2.44140625,295.8984375,30.2734375
1510192044.3746915,-105.95703125,31.25,10.25390625,-187.01171875,28.80859375
1510192044.3785977,-85.44921875,23.92578125,10.7421875,-237.3046875,-13.18359375
1510192044.382504,35.64453125,19.04296875,7.32421875,201.171875,8.7890625
1510192044.3845685,57.6171875,18.06640625,10.25390625,395.99609375,8.7890625
1510192044.3884747,-68.84765625,18.5546875,13.18359375,-56.640625,-10.25390625
1510192044.392381,-91.30859375,19.53125,15.625,-282.71484375,-8.7890625
1510192044.3962872,17.578125,18.5546875,12.6953125,80.56640625,-22.4609375
1510192044.4001935,82.51953125,17.578125,3.90625,417.48046875,1.46484375
1510192044.4040997,-21.97265625,22.4609375,5.37109375,88.37890625,42.48046875
1510192044.408006,-96.19140625,24.4140625,8.30078125,-302.24609375,-14.6484375
1510192044.4119122,-9.765625,23.92578125,7.32421875,-79.1015625,-68.84765625
1510192044.4158185,86.42578125,22.94921875,6.34765625,381.8359375,-26.3671875
1510192044.4197247,14.16015625,22.94921875,7.32421875,263.18359375,13.18359375
1510192044.423631,-104.98046875,24.4140625,9.27734375,-246.58203125,12.6953125
1510192044.4275372,-41.9921875,22.4609375,8.7890625,-158.203125,39.0625
1510192044.4295988,71.77734375,21.97265625,1.953125,319.3359375,60.546875
1510192044.433505,58.10546875,24.90234375,3.41796875,379.8828125,74.70703125
1510192044.4374113,-76.171875,24.4140625,5.859375,-156.73828125,42.48046875
1510192044.4413176,-60.05859375,22.4609375,2.9296875,-268.06640625,-17.578125
1510192044.4452238,53.7109375,19.53125,1.953125,196.77734375,-4.39453125
1510192044.44913,83.0078125,20.99609375,-0.9765625,432.6171875,28.80859375
1510192044.4530363,-54.6875,22.94921875,-1.953125,-45.8984375,5.37109375
1510192044.4569426,-95.703125,23.4375,-3.41796875,-349.609375,-34.66796875
1510192044.4608488,20.5078125,28.80859375,-4.39453125,43.45703125,-14.16015625
1510192044.464755,87.890625,27.83203125,-7.32421875,440.91796875,42.48046875
1510192044.4686613,-14.16015625,27.34375,-6.8359375,118.1640625,56.640625
1510192044.4725676,-101.5625,30.2734375,-8.30078125,-304.6875,23.92578125
1510192044.4746327,-18.5546875,26.3671875,-10.25390625,-88.8671875,3.41796875
1510192044.478539,76.66015625,20.01953125,-7.8125,345.703125,25.87890625
1510192044.4824452,17.578125,20.99609375,-7.32421875,229.4921875,18.5546875
1510192044.4863515,-102.5390625,25.390625,-4.8828125,-254.8828125,-12.6953125
1510192044.4902577,-56.15234375,23.4375,-4.8828125,-199.70703125,-6.8359375
1510192044.494164,56.640625,19.04296875,-8.30078125,246.09375,-23.4375
1510192044.4980702,54.19921875,17.08984375,-7.32421875,328.61328125,-20.5078125
1510192044.5019765,-78.61328125,19.53125,-7.8125,-160.64453125,-1.46484375
1510192044.5058827,-75.1953125,23.4375,-8.30078125,-276.3671875,7.8125
1510192044.509789,41.9921875,23.92578125,-6.34765625,135.7421875,-18.06640625
1510192044.5136952,82.03125,19.53125,-7.32421875,399.90234375,-0.48828125
1510192044.5176015,-43.45703125,18.06640625,-4.8828125,-8.7890625,21.484375
1510192044.5346737,-91.796875,19.53125,0.48828125,-319.3359375,-11.71875
1510192044.53858,1.953125,17.578125,2.9296875,-9.765625,-36.1328125
1510192044.5424862,76.66015625,16.11328125,-0.48828125,374.51171875,9.27734375
1510192044.5463924,-9.765625,18.06640625,3.41796875,130.859375,31.73828125
1510192044.5502987,-111.328125,15.625,6.8359375,-312.5,-25.87890625
1510192044.554205,-39.0625,12.20703125,4.8828125,-146.97265625,-35.64453125
1510192044.5581112,62.01171875,10.25390625,3.41796875,301.26953125,24.90234375
1510192044.5620174,21.97265625,13.671875,1.46484375,276.3671875,26.3671875
1510192044.5659237,-99.12109375,17.578125,2.44140625,-219.7265625,-3.90625
1510192044.56983,-54.6875,16.6015625,0.0,-239.74609375,7.32421875
1510192044.5737362,60.05859375,15.625,-4.8828125,214.84375,24.4140625
1510192044.5776424,66.40625,16.6015625,-2.9296875,377.44140625,50.29296875
1510192044.5802062,-72.265625,17.08984375,1.953125,-111.81640625,-15.13671875
1510192044.5841124,-86.9140625,12.20703125,0.9765625,-307.12890625,-69.3359375
1510192044.5880187,33.69140625,10.7421875,0.48828125,111.328125,-5.37109375
1510192044.591925,83.0078125,35.15625,-4.8828125,416.9921875,47.36328125
1510192044.5958312,-53.22265625,43.9453125,-4.39453125,24.4140625,24.4140625
1510192044.5997374,-121.58203125,30.76171875,-0.9765625,-334.9609375,4.39453125
1510192044.6036437,-23.92578125,28.80859375,-2.44140625,-45.8984375,9.765625
1510192044.60755,64.453125,26.3671875,-5.37109375,368.1640625,14.6484375
1510192044.6114562,-19.53125,25.390625,-3.41796875,158.69140625,-8.30078125
1510192044.6153624,-129.8828125,24.90234375,0.9765625,-324.70703125,-44.43359375
1510192044.6192687,-48.33984375,24.4140625,-3.90625,-178.7109375,-47.8515625
1510192044.623175,57.12890625,21.97265625,-8.7890625,314.453125,-20.99609375
1510192044.6242375,21.484375,20.5078125,-6.8359375,303.7109375,13.18359375
1510192044.6281438,-109.86328125,20.5078125,-6.34765625,-209.47265625,5.859375
1510192044.63205,-81.54296875,19.53125,-10.25390625,-250.48828125,-24.90234375
1510192044.6359563,36.62109375,20.5078125,-12.6953125,187.98828125,-36.1328125
1510192044.6398625,58.10546875,22.94921875,-12.6953125,373.53515625,4.39453125
1510192044.6437688,-75.1953125,23.4375,-8.7890625,-83.49609375,9.765625
1510192044.647675,-105.95703125,22.4609375,-8.7890625,-317.3828125,-8.30078125
1510192044.6515813,0.0,21.484375,-11.71875,64.94140625,15.625
1510192044.6554875,49.31640625,20.5078125,-9.765625,380.859375,0.9765625
1510192044.6593938,-59.08203125,23.4375,-7.8125,19.53125,-12.6953125
1510192044.6633,-122.0703125,21.97265625,-9.27734375,-315.91796875,3.41796875
1510192044.6672063,-26.3671875,21.97265625,-7.8125,-56.640625,-8.30078125
1510192044.669289,70.80078125,26.3671875,-5.37109375,355.95703125,8.30078125
1510192044.6731954,6.34765625,31.25,-1.46484375,202.1484375,23.4375
1510192044.6771016,-104.4921875,31.25,6.34765625,-275.390625,20.5078125
1510192044.6810079,-40.52734375,27.34375,6.8359375,-179.6875,3.41796875
1510192044.684914,66.40625,26.85546875,5.37109375,272.94921875,31.25
1510192044.6888204,46.875,31.25,3.90625,324.70703125,67.3828125
1510192044.6927266,-84.9609375,36.1328125,0.9765625,-184.5703125,33.69140625
1510192044.6966329,-76.171875,34.66796875,2.44140625,-279.296875,-4.8828125
1510192044.700539,39.55078125,31.73828125,1.46484375,135.7421875,18.5546875
1510192044.7044454,74.21875,35.64453125,0.0,381.8359375,43.9453125
1510192044.7083516,-51.7578125,40.0390625,8.30078125,-11.23046875,25.87890625
1510192044.7122579,-98.14453125,36.1328125,9.765625,-309.5703125,-19.53125
1510192044.7143009,1.953125,34.1796875,6.8359375,14.6484375,-47.8515625
1510192044.7182071,79.58984375,37.109375,5.859375,399.90234375,-2.44140625
1510192044.7221134,-19.04296875,38.57421875,4.8828125,119.140625,5.37109375
1510192044.7260196,-108.88671875,38.57421875,5.37109375,-309.5703125,-15.625
1510192044.7299259,-23.4375,38.57421875,5.859375,-107.421875,-3.90625
1510192044.7338321,78.61328125,36.62109375,5.37109375,346.6796875,25.390625
1510192044.7377384,20.5078125,39.55078125,6.34765625,247.55859375,20.99609375
1510192044.7416446,-100.09765625,42.48046875,9.765625,-259.765625,20.5078125
1510192044.7455509,-48.828125,38.57421875,8.7890625,-219.7265625,23.4375
1510192044.7494571,56.15234375,32.71484375,7.8125,259.765625,6.34765625
1510192044.7533634,48.828125,30.76171875,8.7890625,375.48828125,9.27734375
1510192044.7572696,-83.0078125,30.2734375,10.25390625,-132.32421875,-27.83203125
1510192044.7593534,-81.0546875,25.87890625,7.8125,-286.62109375,-43.45703125
1510192044.7632596,35.15625,26.3671875,2.9296875,148.4375,26.85546875
1510192044.767166,77.1484375,27.34375,2.44140625,409.1796875,21.484375
1510192044.7710721,-48.33984375,24.90234375,3.41796875,-13.18359375,3.41796875
1510192044.7749784,-103.515625,24.4140625,2.9296875,-326.171875,-0.9765625
1510192044.7788846,-0.48828125,21.97265625,0.9765625,0.9765625,12.20703125
1510192044.782791,80.56640625,20.01953125,-0.9765625,396.484375,62.01171875
1510192044.7866971,-8.7890625,22.4609375,2.9296875,110.83984375,-6.34765625
1510192044.7906034,-108.3984375,24.4140625,6.8359375,-310.546875,-34.1796875
1510192044.7945096,-28.3203125,22.94921875,7.8125,-90.33203125,-21.484375
1510192044.798416,77.63671875,25.87890625,7.32421875,343.26171875,17.08984375
1510192044.8023221,26.3671875,31.73828125,7.32421875,285.64453125,66.40625
1510192044.8043668,-98.14453125,34.66796875,9.27734375,-220.703125,36.62109375
1510192044.808273,-57.12890625,29.296875,9.27734375,-238.28125,0.0
1510192044.8121793,48.828125,25.87890625,3.90625,201.66015625,8.7890625
1510192044.8160856,46.875,40.0390625,4.39453125,354.00390625,36.1328125
1510192044.8199918,-85.44921875,45.8984375,11.23046875,-114.2578125,-6.34765625
1510192044.823898,-101.5625,32.71484375,14.6484375,-312.98828125,-38.57421875
1510192044.8278043,0.9765625,24.4140625,11.71875,75.1953125,-16.6015625
1510192044.8317106,52.24609375,23.4375,7.8125,391.6015625,11.71875
1510192044.8356168,-55.6640625,24.4140625,11.71875,45.8984375,-3.90625
1510192044.839523,-114.2578125,25.87890625,13.671875,-314.453125,-50.78125
1510192044.8434293,-19.53125,24.90234375,9.27734375,-79.1015625,-92.7734375
1510192044.8473356,68.84765625,25.390625,6.8359375,335.44921875,-41.015625
1510192044.8644087,-5.859375,28.80859375,8.7890625,182.6171875,40.52734375
1510192044.868315,-108.3984375,28.3203125,9.27734375,-278.3203125,-18.06640625
1510192044.8722212,-33.69140625,29.78515625,3.41796875,-165.52734375,-57.6171875
1510192044.8761275,76.66015625,27.83203125,-1.46484375,303.22265625,-3.41796875
1510192044.8800337,48.828125,27.83203125,2.44140625,326.171875,20.99609375
1510192044.88394,-79.58984375,34.1796875,4.8828125,-190.4296875,-29.296875
1510192044.8878462,-43.45703125,36.62109375,-0.9765625,-270.99609375,-62.98828125
1510192044.8917525,64.453125,32.2265625,-5.859375,191.89453125,2.44140625
1510192044.8956587,66.89453125,23.4375,2.44140625,430.17578125,41.50390625
1510192044.899565,-71.2890625,19.04296875,9.765625,-45.41015625,7.8125
1510192044.9034712,-109.86328125,17.08984375,7.32421875,-298.828125,-12.20703125
1510192044.9073775,-2.9296875,20.5078125,4.8828125,87.40234375,6.34765625
1510192044.9099445,48.33984375,21.97265625,4.8828125,430.6640625,22.4609375
1510192044.9138508,-65.4296875,23.4375,7.32421875,75.68359375,13.671875
1510192044.917757,-137.6953125,26.3671875,9.27734375,-318.359375,-9.765625
1510192044.9216633,-43.45703125,25.87890625,6.34765625,-66.89453125,-21.97265625
1510192044.9255695,48.33984375,25.390625,5.37109375,373.53515625,18.06640625
1510192044.9294758,-29.78515625,25.390625,8.30078125,208.49609375,15.625
1510192044.933382,-137.6953125,23.92578125,9.27734375,-284.1796875,-26.3671875
1510192044.9372883,-67.87109375,24.4140625,7.8125,-169.43359375,0.0
1510192044.9411945,44.921875,24.4140625,4.8828125,312.98828125,62.98828125
1510192044.9451008,31.25,26.3671875,5.37109375,329.58984375,40.0390625
1510192044.949007,-95.21484375,27.83203125,5.37109375,-204.1015625,-20.01953125
1510192044.9529133,-87.890625,25.390625,3.41796875,-268.06640625,-25.87890625
1510192044.954492,29.78515625,24.4140625,5.37109375,170.41015625,-2.44140625
1510192044.9583983,70.80078125,25.87890625,8.30078125,418.9453125,4.39453125
1510192044.9623046,-48.828125,31.73828125,12.6953125,-4.8828125,3.41796875
1510192044.9662108,-88.8671875,29.78515625,13.671875,-295.41015625,-10.25390625
1510192044.970117,9.27734375,24.4140625,11.71875,48.828125,-6.8359375
1510192044.9740233,76.171875,24.4140625,7.32421875,397.94921875,31.25
1510192044.9779296,-28.80859375,31.25,12.20703125,82.03125,17.578125
1510192044.9818358,-115.72265625,36.1328125,16.6015625,-321.2890625,-3.41796875
1510192044.985742,-35.64453125,31.25,12.6953125,-107.421875,-38.57421875
1510192044.9896483,58.10546875,28.80859375,8.7890625,305.17578125,-23.92578125
1510192044.9935546,4.39453125,33.203125,8.7890625,227.05078125,34.1796875
1510192044.9974608,-111.81640625,32.2265625,11.71875,-234.375,-1.46484375
1510192044.9995046,-60.546875,27.34375,13.18359375,-213.8671875,-21.484375
1510192045.0034108,55.6640625,32.2265625,12.20703125,237.79296875,-14.6484375
1510192045.007317,53.7109375,37.59765625,11.71875,355.95703125,22.4609375
1510192045.0112233,-85.44921875,37.109375,13.671875,-144.53125,4.39453125
1510192045.0151296,-87.890625,36.1328125,15.13671875,-301.7578125,-29.78515625
1510192045.0190358,32.71484375,36.62109375,15.13671875,117.1875,12.6953125
1510192045.022942,74.21875,37.109375,10.25390625,388.671875,36.1328125
1510192045.0268483,-49.31640625,36.1328125,9.27734375,-6.34765625,24.90234375
1510192045.0307546,-101.07421875,33.69140625,13.671875,-328.125,0.48828125
1510192045.0346608,-0.48828125,34.66796875,14.6484375,-39.0625,-13.671875
1510192045.038567,83.984375,36.1328125,10.7421875,395.99609375,19.53125
1510192045.0424733,-6.8359375,38.0859375,15.13671875,161.62109375,9.765625
1510192045.0445554,-102.05078125,43.9453125,20.01953125,-300.29296875,7.32421875
1510192045.0484617,-21.97265625,45.8984375,17.08984375,-123.046875,-20.5078125
1510192045.052368,83.49609375,43.45703125,16.6015625,338.37890625,-17.578125
1510192045.0562742,32.71484375,43.45703125,17.08984375,290.52734375,34.1796875
1510192045.0601804,-97.16796875,41.50390625,17.578125,-222.65625,17.578125
1510192045.0640867,-52.734375,40.52734375,20.01953125,-229.4921875,-21.97265625
1510192045.067993,59.08203125,42.48046875,21.484375,232.91015625,13.671875
1510192045.0718992,66.89453125,41.9921875,20.01953125,388.18359375,49.8046875
1510192045.0758054,-54.19921875,43.45703125,20.99609375,-127.9296875,5.859375
1510192045.0797117,-66.40625,48.33984375,25.390625,-307.6171875,-19.04296875
1510192045.083618,35.64453125,50.29296875,21.484375,121.09375,-3.90625
1510192045.0875242,84.47265625,46.875,13.671875,408.203125,12.20703125
1510192045.0895667,-38.0859375,43.9453125,18.06640625,26.85546875,-40.0390625
1510192045.093473,-103.02734375,46.875,23.92578125,-316.40625,-55.17578125
1510192045.0973792,-7.32421875,44.921875,23.92578125,-40.52734375,-28.3203125
1510192045.1012855,76.171875,42.48046875,20.5078125,367.67578125,38.57421875
1510192045.1051917,-4.39453125,43.9453125,20.5078125,180.6640625,49.31640625
1510192045.109098,-107.91015625,49.31640625,20.5078125,-279.296875,3.90625
1510192045.1130042,-33.69140625,63.96484375,15.13671875,-156.73828125,1.953125
1510192045.1169105,74.21875,67.87109375,19.53125,292.96875,-35.15625
1510192045.1208167,47.36328125,71.2890625,23.92578125,302.734375,-16.11328125
1510192045.124723,-94.7265625,82.03125,15.625,-185.546875,19.53125
1510192045.1286292,-74.70703125,76.171875,9.27734375,-240.72265625,-20.01953125
1510192045.1325355,40.52734375,66.40625,5.37109375,179.6875,-43.9453125
1510192045.1346087,54.19921875,62.98828125,4.39453125,375.9765625,15.625
1510192045.138515,-68.84765625,62.98828125,8.30078125,-58.10546875,14.6484375
1510192045.1424212,-94.7265625,59.08203125,11.23046875,-302.734375,-37.109375
1510192045.1463275,8.30078125,53.22265625,10.7421875,55.6640625,3.41796875
1510192045.1502337,71.2890625,48.33984375,9.765625,403.3203125,40.52734375
1510192045.15414,-32.71484375,48.828125,13.18359375,70.3125,13.18359375
1510192045.1580462,-105.46875,48.828125,15.625,-308.10546875,-0.9765625
1510192045.1619525,-18.5546875,46.38671875,12.6953125,-97.65625,-34.66796875
1510192045.1658587,77.1484375,48.828125,8.30078125,349.609375,18.06640625
1510192045.169765,16.11328125,52.24609375,10.25390625,257.32421875,50.78125
1510192045.1736712,-101.07421875,54.19921875,11.71875,-235.83984375,1.953125
1510192045.1775775,-39.0625,52.24609375,9.765625,-158.69140625,-15.625
1510192045.1796339,77.1484375,51.7578125,7.32421875,305.6640625,23.92578125
1510192045.18354,54.6875,51.7578125,9.765625,371.58203125,49.31640625
1510192045.1874464,-81.54296875,48.828125,13.671875,-146.97265625,30.2734375
1510192045.1913526,-69.82421875,49.31640625,13.18359375,-264.16015625,2.44140625
1510192045.1952589,45.41015625,48.828125,12.6953125,184.5703125,2.9296875
1510192045.199165,77.63671875,45.41015625,14.6484375,434.5703125,47.8515625
1510192045.2030714,-50.29296875,47.36328125,21.484375,-29.78515625,11.23046875
1510192045.2069776,-91.30859375,49.8046875,20.99609375,-334.47265625,-68.84765625
1510192045.2108839,15.625,48.33984375,12.6953125,47.36328125,-15.625
1510192045.21479,95.21484375,49.8046875,9.765625,439.453125,75.68359375
1510192045.2186964,-6.8359375,47.8515625,10.25390625,132.8125,78.61328125
1510192045.2226026,-93.75,48.828125,11.23046875,-286.62109375,35.15625
1510192045.2246633,-8.7890625,49.8046875,13.671875,-80.078125,10.7421875
1510192045.2285695,82.03125,46.38671875,16.6015625,340.33203125,-1.953125
1510192045.2324758,27.83203125,46.38671875,20.99609375,247.55859375,2.9296875
1510192045.236382,-91.30859375,46.38671875,24.90234375,-231.93359375,-27.83203125
1510192045.2402883,-38.57421875,46.875,26.3671875,-185.546875,-36.1328125
1510192045.2441945,73.73046875,47.36328125,23.92578125,269.04296875,-0.9765625
1510192045.2481008,62.5,47.36328125,20.5078125,338.37890625,-7.8125
1510192045.252007,-65.4296875,50.78125,18.5546875,-135.7421875,-4.8828125
1510192045.2559133,-62.5,49.8046875,15.625,-249.51171875,14.6484375
1510192045.2598195,44.921875,47.8515625,12.6953125,136.71875,29.78515625
1510192045.2637258,85.44921875,44.921875,11.23046875,391.6015625,31.25
1510192045.267632,-35.15625,42.48046875,12.6953125,-0.9765625,9.27734375
1510192045.2843285,-91.796875,42.96875,13.18359375,-310.546875,-25.390625
1510192045.2882347,0.9765625,42.96875,9.27734375,-13.671875,-23.4375
1510192045.292141,82.51953125,41.50390625,5.859375,373.53515625,26.85546875
1510192045.2960472,-7.32421875,43.45703125,8.30078125,134.27734375,36.1328125
1510192045.2999535,-109.375,40.0390625,9.27734375,-303.22265625,36.62109375
1510192045.3038597,-35.15625,34.66796875,7.32421875,-150.390625,13.671875
1510192045.307766,72.265625,39.0625,4.8828125,292.96875,43.45703125
1510192045.3116722,27.83203125,41.50390625,3.41796875,287.109375,101.07421875
1510192045.3155785,-101.5625,38.57421875,12.20703125,-213.37890625,62.98828125
1510192045.3194847,-64.453125,39.0625,15.13671875,-249.51171875,14.6484375
1510192045.323391,49.31640625,39.0625,11.71875,212.890625,16.11328125
1510192045.3272972,57.12890625,36.62109375,12.6953125,391.6015625,34.66796875
1510192045.3296523,-80.078125,36.1328125,17.578125,-84.47265625,-3.90625
1510192045.3335586,-92.7734375,34.1796875,16.6015625,-300.29296875,-20.01953125
1510192045.3374648,15.13671875,31.73828125,11.71875,81.0546875,11.71875
1510192045.341371,72.265625,31.73828125,10.7421875,411.62109375,47.36328125
1510192045.3452773,-29.78515625,33.69140625,13.18359375,49.8046875,38.0859375
1510192045.3491836,-100.5859375,35.15625,13.18359375,-319.82421875,-8.30078125
1510192045.3530898,-10.25390625,36.62109375,11.23046875,-56.640625,-7.32421875
1510192045.356996,79.58984375,34.1796875,10.25390625,356.4453125,0.0
1510192045.3609023,-0.48828125,29.296875,16.6015625,176.7578125,16.11328125
1510192045.3648086,-109.375,33.203125,16.6015625,-310.546875,-20.01953125
1510192045.3687148,-47.8515625,41.015625,2.44140625,-193.359375,-17.578125
1510192045.372621,59.08203125,37.59765625,2.9296875,299.31640625,16.11328125
1510192045.3746781,37.109375,33.69140625,11.23046875,318.359375,18.06640625
1510192045.3785844,-93.26171875,34.1796875,12.6953125,-184.08203125,-16.6015625
1510192045.3824906,-63.96484375,37.109375,10.7421875,-231.93359375,-38.57421875
1510192045.386397,52.734375,44.43359375,8.30078125,207.51953125,8.30078125
1510192045.3903031,82.03125,49.31640625,11.23046875,407.2265625,50.29296875
1510192045.3942094,-39.55078125,49.8046875,16.11328125,-33.69140625,35.15625
1510192045.3981156,-66.89453125,48.33984375,13.671875,-272.4609375,-5.37109375
1510192045.402022,52.24609375,48.828125,8.7890625,99.12109375,2.44140625
1510192045.4059281,117.1875,44.43359375,8.7890625,426.7578125,2.44140625
1510192045.4098344,7.32421875,56.15234375,6.8359375,77.1484375,-44.43359375
1510192045.4137406,-61.5234375,62.5,0.0,-271.484375,-41.015625
1510192045.417647,37.109375,52.734375,-0.48828125,-0.48828125,-4.39453125
1510192045.4196963,136.71875,52.734375,-0.48828125,414.0625,26.3671875
1510192045.4236026,71.2890625,49.31640625,0.9765625,261.23046875,7.32421875
1510192045.4275088,-44.43359375,42.96875,8.7890625,-213.37890625,-42.96875
1510192045.431415,8.7890625,38.0859375,12.6953125,-140.13671875,-26.85546875
1510192045.4353213,106.4453125,36.1328125,10.7421875,303.22265625,8.30078125
1510192045.4392276,80.078125,35.15625,8.7890625,358.3984375,16.11328125
1510192045.4431338,-55.6640625,35.15625,12.20703125,-137.6953125,25.390625
1510192045.44704,-43.9453125,37.109375,12.20703125,-243.65234375,-5.859375
1510192045.4509463,76.66015625,37.59765625,10.7421875,151.3671875,-29.78515625
1510192045.4548526,108.3984375,37.109375,8.7890625,400.87890625,23.92578125
1510192045.4587588,-12.20703125,38.0859375,9.27734375,10.25390625,34.1796875
1510192045.462665,-53.22265625,37.109375,11.23046875,-283.69140625,-17.08984375
1510192045.4647284,48.828125,38.57421875,12.6953125,43.9453125,-12.20703125
1510192045.4686346,122.0703125,40.0390625,10.7421875,412.109375,49.31640625
1510192045.4725409,17.08984375,42.48046875,12.6953125,126.46484375,29.296875
1510192045.476447,-71.77734375,43.9453125,12.20703125,-296.875,-42.96875
1510192045.4803534,6.34765625,41.015625,8.7890625,-94.23828125,-40.52734375
1510192045.4842596,97.65625,41.015625,9.765625,344.7265625,-9.27734375
1510192045.4881659,35.64453125,44.43359375,11.23046875,253.90625,37.59765625
1510192045.492072,-80.56640625,47.8515625,11.71875,-245.1171875,-12.6953125
1510192045.4959784,-29.78515625,44.921875,8.30078125,-224.12109375,-43.9453125
1510192045.4998846,70.80078125,40.0390625,4.8828125,270.5078125,33.69140625
1510192045.5037909,67.3828125,42.96875,5.37109375,393.06640625,39.0625
1510192045.507697,-55.6640625,44.921875,6.34765625,-107.421875,3.41796875
1510192045.5092664,-58.59375,41.9921875,3.41796875,-257.32421875,3.90625
1510192045.5131726,45.41015625,37.59765625,3.90625,153.80859375,-1.953125
1510192045.5170789,85.9375,36.62109375,3.41796875,420.8984375,22.94921875
1510192045.5209851,-30.2734375,38.57421875,5.859375,10.25390625,11.71875
1510192045.5248914,-85.9375,40.0390625,9.27734375,-301.7578125,-68.84765625
1510192045.5287976,8.7890625,41.50390625,8.7890625,13.18359375,-47.36328125
1510192045.5327039,86.9140625,44.43359375,6.34765625,399.90234375,24.4140625
1510192045.5366101,-4.39453125,46.38671875,5.859375,122.55859375,-24.90234375
1510192045.5405164,-96.19140625,42.48046875,5.859375,-306.15234375,-67.87109375
1510192045.5444226,-14.6484375,43.45703125,3.41796875,-83.49609375,-41.9921875
1510192045.5483289,76.66015625,48.33984375,2.44140625,333.49609375,-21.484375
1510192045.5522351,22.94921875,48.828125,6.8359375,264.16015625,6.34765625
1510192045.5542915,-97.16796875,46.875,12.20703125,-218.75,-1.46484375
1510192045.5581977,-58.10546875,42.96875,12.20703125,-224.609375,-23.4375
1510192045.562104,53.7109375,43.45703125,8.7890625,217.28515625,0.9765625
1510192045.5660102,60.546875,41.9921875,8.30078125,371.09375,28.3203125
1510192045.5699165,-77.63671875,38.57421875,11.71875,-88.37890625,-20.5078125
1510192045.5738227,-99.12109375,34.66796875,12.6953125,-299.31640625,-46.38671875
1510192045.577729,8.30078125,34.66796875,10.7421875,57.6171875,-29.296875
1510192045.5816352,62.98828125,36.62109375,7.8125,357.91015625,-6.8359375
1510192045.5855415,-44.921875,38.57421875,7.32421875,27.34375,-18.06640625
1510192045.5894477,-113.76953125,40.0390625,8.7890625,-303.7109375,-50.29296875
1510192045.593354,-20.01953125,40.0390625,5.859375,-53.7109375,-36.1328125
1510192045.5972602,66.89453125,39.0625,5.859375,353.02734375,-13.18359375
1510192045.599344,-14.16015625,37.109375,9.765625,179.6875,-13.671875
1510192045.6032503,-113.76953125,37.109375,11.71875,-281.73828125,-16.6015625
1510192045.6071565,-42.96875,33.203125,12.6953125,-157.2265625,-5.37109375
1510192045.6110628,61.5234375,30.2734375,13.671875,294.921875,24.4140625
1510192045.614969,33.203125,29.78515625,15.625,314.94140625,31.25
1510192045.6188753,-88.8671875,26.3671875,22.94921875,-179.6875,6.34765625
1510192045.6227815,-62.5,26.3671875,24.90234375,-275.390625,25.87890625
1510192045.6266878,52.24609375,28.3203125,19.04296875,165.0390625,16.11328125
1510192045.630594,77.1484375,28.3203125,18.5546875,397.94921875,-19.53125
1510192045.6345003,-54.6875,29.78515625,24.90234375,-50.29296875,-10.7421875
1510192045.6384065,-86.9140625,34.1796875,23.92578125,-288.0859375,-19.53125
1510192045.6423128,16.6015625,33.69140625,16.6015625,82.51953125,-13.671875
1510192045.6593683,81.54296875,30.76171875,15.13671875,430.6640625,14.6484375
1510192045.6632745,-23.4375,30.76171875,21.97265625,103.515625,2.44140625
1510192045.6671808,-105.95703125,28.3203125,24.90234375,-280.76171875,-14.16015625
1510192045.671087,-22.94921875,28.80859375,22.4609375,-38.57421875,-7.32421875
1510192045.6749933,63.96484375,30.2734375,20.5078125,377.44140625,0.0
1510192045.6788995,-17.08984375,28.80859375,19.53125,223.6328125,9.27734375
1510192045.6828058,-134.765625,28.3203125,19.53125,-264.6484375,-35.15625
1510192045.686712,-75.68359375,30.2734375,18.5546875,-160.64453125,-41.015625
1510192045.6906183,20.99609375,29.78515625,13.18359375,297.36328125,-19.53125
1510192045.6945245,-6.8359375,26.85546875,9.27734375,324.70703125,5.37109375
1510192045.6984308,-131.8359375,31.25,10.7421875,-170.8984375,-10.25390625
1510192045.702337,-112.3046875,32.71484375,9.765625,-252.9296875,-30.2734375
1510192045.7044003,6.8359375,30.76171875,9.27734375,166.50390625,-23.4375
1510192045.7083066,52.734375,32.2265625,5.859375,402.34375,5.37109375
1510192045.7122128,-62.01171875,32.71484375,4.8828125,-10.25390625,2.9296875
1510192045.716119,-108.88671875,32.2265625,6.34765625,-288.0859375,-42.48046875
1510192045.7200253,-7.32421875,31.73828125,4.39453125,33.203125,-35.15625
1510192045.7239316,70.80078125,27.83203125,1.46484375,389.6484375,11.23046875
1510192045.7278378,-22.94921875,26.85546875,5.859375,105.46875,-0.48828125
1510192045.731744,-106.4453125,24.90234375,8.30078125,-291.015625,-22.4609375
1510192045.7356503,-18.06640625,22.94921875,6.34765625,-78.125,-29.78515625
1510192045.7395566,77.63671875,24.4140625,5.859375,315.91796875,-34.66796875
1510192045.7434628,27.83203125,28.3203125,7.8125,232.91015625,-0.9765625
1510192045.747369,-88.37890625,31.73828125,14.16015625,-205.56640625,1.953125
1510192045.7494502,-47.36328125,32.2265625,13.671875,-191.89453125,-50.29296875
1510192045.7533565,63.4765625,30.76171875,7.8125,241.69921875,-26.85546875
1510192045.7572627,60.05859375,28.80859375,7.8125,367.67578125,35.15625
1510192045.761169,-76.171875,33.69140625,8.7890625,-127.9296875,2.9296875
1510192045.7650752,-81.0546875,35.15625,8.7890625,-296.38671875,-44.43359375
1510192045.7689815,30.76171875,33.203125,9.765625,109.375,-23.4375
1510192045.7728877,74.70703125,29.78515625,5.859375,394.04296875,47.8515625
1510192045.776794,-42.96875,27.83203125,7.8125,9.27734375,35.15625
1510192045.7807002,-104.4921875,28.3203125,8.7890625,-328.125,-52.734375
1510192045.7846065,-6.8359375,28.80859375,2.44140625,-41.015625,-21.97265625
1510192045.7885127,79.1015625,29.296875,0.48828125,388.18359375,55.6640625
1510192045.792419,-8.30078125,32.71484375,7.32421875,154.296875,30.2734375
1510192045.7944624,-108.3984375,33.69140625,10.7421875,-296.38671875,-5.37109375
1510192045.7983687,-29.296875,38.57421875,6.34765625,-121.09375,-33.203125
1510192045.802275,69.82421875,53.22265625,2.44140625,329.58984375,2.44140625
1510192045.8061812,20.5078125,57.6171875,3.90625,284.1796875,41.9921875
1510192045.8100874,-100.5859375,53.22265625,7.8125,-223.6328125,-3.41796875
1510192045.8139937,-60.05859375,40.52734375,6.34765625,-237.3046875,-24.90234375
1510192045.8179,49.8046875,28.80859375,0.48828125,212.890625,11.23046875
1510192045.8218062,62.5,26.3671875,2.9296875,367.1875,37.109375
1510192045.8257124,-64.453125,27.34375,7.8125,-125.9765625,-9.27734375
1510192045.8296187,-85.9375,26.3671875,8.30078125,-320.80078125,-55.17578125
1510192045.833525,19.04296875,22.4609375,9.765625,97.65625,-21.484375
1510192045.8374312,71.77734375,20.5078125,7.8125,410.15625,6.34765625
1510192045.8394954,-43.9453125,22.94921875,9.765625,35.15625,3.90625
1510192045.8434017,-117.1875,24.4140625,13.18359375,-311.03515625,29.78515625
1510192045.847308,-26.3671875,22.4609375,13.671875,-45.41015625,26.3671875
1510192045.8512142,66.40625,24.4140625,10.25390625,336.42578125,21.484375
1510192045.8551204,-8.30078125,24.4140625,10.7421875,157.2265625,42.48046875
1510192045.8590267,-116.69921875,21.484375,13.18359375,-287.59765625,33.203125
1510192045.862933,-50.78125,20.01953125,13.671875,-173.828125,8.7890625
1510192045.8668392,62.5,20.99609375,17.08984375,263.18359375,-15.13671875
1510192045.8707454,37.109375,20.01953125,20.01953125,268.06640625,-19.53125
1510192045.8746517,-95.703125,20.01953125,20.01953125,-194.3359375,-38.57421875
1510192045.878558,-67.87109375,22.4609375,21.97265625,-229.4921875,-45.41015625
1510192045.8824642,47.8515625,20.99609375,18.06640625,199.70703125,8.30078125
1510192045.8842874,70.80078125,20.5078125,17.08984375,395.99609375,51.26953125
1510192045.8881936,-51.7578125,22.94921875,24.4140625,-43.45703125,32.2265625
1510192045.8920999,-84.47265625,23.4375,28.3203125,-285.64453125,-7.32421875
1510192045.896006,13.671875,21.97265625,29.296875,65.91796875,20.01953125
1510192045.8999124,68.84765625,20.99609375,27.83203125,410.64453125,50.78125
1510192045.9038186,-41.015625,23.4375,28.80859375,69.3359375,-13.18359375
1510192045.9077249,-121.58203125,25.390625,30.2734375,-328.61328125,-67.87109375
1510192045.911631,-41.9921875,24.90234375,24.90234375,-102.05078125,-79.58984375
1510192045.9155374,42.96875,24.4140625,19.04296875,334.47265625,-24.90234375
1510192045.9194436,-19.53125,25.390625,20.5078125,243.1640625,5.37109375
1510192045.9233499,-121.09375,25.87890625,26.3671875,-243.65234375,-37.59765625
1510192045.927256,-54.6875,28.3203125,47.36328125,-179.6875,-12.6953125
1510192045.9293218,50.29296875,33.69140625,71.2890625,281.25,11.23046875
1510192045.933228,36.1328125,34.66796875,71.2890625,352.05078125,27.34375
1510192045.9371343,-83.984375,36.1328125,60.05859375,-153.80859375,50.29296875
1510192045.9410405,-76.66015625,38.57421875,44.43359375,-275.87890625,34.1796875
1510192045.9449468,29.296875,36.62109375,27.83203125,156.73828125,29.296875
1510192045.948853,60.05859375,35.64453125,18.5546875,402.83203125,31.73828125
1510192045.9527593,-55.6640625,40.0390625,15.625,-44.43359375,-35.15625
1510192045.9566655,-94.23828125,41.9921875,11.23046875,-342.7734375,-75.1953125
1510192045.9605718,1.953125,40.52734375,4.39453125,27.34375,-12.20703125
1510192045.964478,66.40625,38.57421875,3.90625,416.015625,39.0625
1510192045.9683843,-29.78515625,39.55078125,3.41796875,118.65234375,39.0625
1510192045.9722905,-110.3515625,43.45703125,3.41796875,-301.7578125,-5.859375
1510192045.9753528,-26.85546875,44.43359375,4.39453125,-97.16796875,-20.99609375
1510192045.979259,63.96484375,41.50390625,5.859375,335.9375,1.46484375
1510192045.9831653,-0.48828125,39.55078125,7.32421875,235.83984375,-8.30078125
1510192045.9870715,-120.1171875,41.50390625,9.27734375,-243.65234375,-11.71875
1510192045.9909778,-61.5234375,41.50390625,9.765625,-198.2421875,-55.17578125
1510192045.994884,46.38671875,40.52734375,8.30078125,249.51171875,-37.59765625
1510192045.9987903,43.9453125,43.45703125,6.34765625,336.42578125,18.06640625
1510192046.0026965,-74.21875,44.921875,9.27734375,-142.578125,-11.71875
1510192046.0066028,-74.70703125,44.921875,8.30078125,-253.90625,-2.44140625
1510192046.010509,29.78515625,48.33984375,2.44140625,134.27734375,11.23046875
1510192046.0144153,74.70703125,51.26953125,1.46484375,401.3671875,26.85546875
1510192046.0183215,-34.1796875,55.6640625,5.37109375,21.97265625,5.859375
1510192046.0343962,-88.8671875,55.6640625,6.8359375,-300.78125,-46.875
1510192046.0383024,-3.41796875,50.78125,1.46484375,-9.27734375,-17.578125
1510192046.0422087,69.82421875,53.22265625,0.0,380.37109375,24.4140625
1510192046.046115,-19.53125,58.59375,5.859375,151.3671875,1.953125
1510192046.0500212,-114.74609375,59.5703125,11.71875,-296.875,-48.828125
1510192046.0539274,-38.57421875,62.98828125,16.11328125,-144.04296875,-25.87890625
1510192046.0578337,63.96484375,62.5,12.6953125,300.29296875,29.78515625
1510192046.06174,24.4140625,57.6171875,9.765625,273.92578125,46.38671875
1510192046.0656462,-105.95703125,53.7109375,13.18359375,-216.30859375,-10.25390625
1510192046.0695524,-76.171875,50.78125,13.18359375,-269.04296875,-73.73046875
1510192046.0734587,27.83203125,50.29296875,8.7890625,168.9453125,-16.6015625
1510192046.077365,34.1796875,47.8515625,8.30078125,375.0,65.4296875
1510192046.0794346,-89.35546875,45.8984375,15.13671875,-90.8203125,68.84765625
1510192046.083341,-102.5390625,48.828125,20.99609375,-315.4296875,36.62109375
1510192046.0872471,-3.41796875,45.8984375,21.484375,63.96484375,45.41015625
1510192046.0911534,42.48046875,39.0625,17.578125,395.5078125,74.70703125
1510192046.0950596,-65.4296875,38.0859375,20.5078125,43.45703125,33.203125
1510192046.098966,-126.953125,39.55078125,18.06640625,-323.2421875,-1.953125
1510192046.1028721,-37.109375,39.55078125,11.23046875,-67.3828125,23.4375
1510192046.1067784,46.875,39.0625,10.25390625,358.3984375,84.9609375
1510192046.1106846,-24.4140625,44.43359375,10.25390625,185.05859375,72.75390625
1510192046.114591,-111.81640625,48.33984375,9.765625,-301.7578125,0.48828125
1510192046.1184971,-44.43359375,39.0625,10.25390625,-167.96875,2.44140625
1510192046.1224034,44.921875,29.296875,14.6484375,306.15234375,13.18359375
1510192046.1244595,17.578125,29.296875,20.99609375,301.7578125,9.765625
1510192046.1283658,-113.28125,28.3203125,22.94921875,-203.125,-19.04296875
1510192046.132272,-97.65625,25.390625,18.5546875,-246.09375,-24.4140625
1510192046.1361783,12.20703125,28.3203125,14.16015625,199.21875,12.20703125
1510192046.1400845,34.66796875,27.83203125,13.18359375,377.44140625,56.15234375
1510192046.1439908,-89.35546875,29.296875,16.11328125,-77.1484375,12.6953125
1510192046.147897,-116.69921875,34.1796875,17.578125,-317.3828125,-1.953125
1510192046.1518033,-8.30078125,34.1796875,16.6015625,54.6875,41.015625
1510192046.1557095,56.640625,34.66796875,15.625,384.27734375,16.11328125
1510192046.1596158,-46.875,37.109375,13.18359375,38.57421875,-11.23046875
1510192046.163522,-120.60546875,35.15625,11.71875,-313.4765625,-17.08984375
1510192046.1674283,-31.25,33.203125,11.23046875,-68.359375,-7.8125
1510192046.1695108,62.5,33.69140625,10.7421875,343.75,15.625
1510192046.173417,-4.39453125,35.15625,9.765625,209.47265625,29.296875
1510192046.1773233,-118.65234375,35.64453125,8.7890625,-268.5546875,13.18359375
1510192046.1812296,-62.01171875,31.25,10.7421875,-209.47265625,-36.62109375
1510192046.1851358,43.9453125,29.78515625,9.765625,248.53515625,16.6015625
1510192046.189042,30.76171875,30.76171875,7.8125,321.2890625,65.4296875
1510192046.1929483,-93.26171875,34.1796875,10.25390625,-173.33984375,41.9921875
1510192046.1968546,-81.54296875,34.1796875,11.23046875,-278.3203125,29.296875
1510192046.2007608,23.92578125,34.1796875,8.7890625,110.83984375,27.83203125
1510192046.204667,56.15234375,37.109375,5.859375,367.67578125,57.12890625
1510192046.2085733,-62.01171875,38.0859375,10.25390625,-3.41796875,38.57421875
1510192046.2124796,-104.98046875,35.64453125,11.71875,-300.78125,47.8515625
1510192046.2145424,-1.953125,32.71484375,8.30078125,6.8359375,19.04296875
1510192046.2184486,71.2890625,32.2265625,3.41796875,379.39453125,-4.39453125
1510192046.222355,-27.34375,34.1796875,4.8828125,117.1875,47.8515625
1510192046.2262611,-103.02734375,36.62109375,12.20703125,-299.31640625,12.6953125
1510192046.2301674,-13.18359375,38.57421875,11.71875,-99.12109375,-26.3671875
1510192046.2340736,76.171875,39.0625,9.765625,339.35546875,-14.16015625
1510192046.23798,15.625,37.109375,8.30078125,247.55859375,20.5078125
1510192046.2418861,-106.93359375,37.109375,6.8359375,-256.8359375,-47.36328125
1510192046.2457924,-53.22265625,37.109375,6.34765625,-242.1875,-95.21484375
1510192046.2496986,62.01171875,39.55078125,3.41796875,249.0234375,-33.203125
1510192046.253605,57.6171875,44.43359375,5.859375,381.34765625,-1.46484375
1510192046.2575111,-70.80078125,45.8984375,8.30078125,-112.3046875,-13.18359375
1510192046.2600567,-76.66015625,45.41015625,8.7890625,-272.94921875,-13.671875
1510192046.263963,23.4375,47.36328125,7.32421875,125.0,-17.08984375
1510192046.2678692,62.98828125,49.8046875,6.34765625,410.64453125,7.32421875
1510192046.2717755,-59.5703125,49.31640625,8.30078125,5.859375,8.7890625
1510192046.2756817,-117.1875,45.41015625,10.25390625,-317.87109375,8.30078125
1510192046.279588,-20.01953125,48.33984375,11.71875,-7.8125,11.23046875
1510192046.2834942,56.15234375,63.96484375,8.7890625,375.48828125,22.94921875
1510192046.2874005,-32.71484375,69.3359375,8.7890625,124.51171875,41.015625
1510192046.2913067,-124.0234375,70.80078125,9.765625,-306.15234375,9.765625
1510192046.295213,-56.15234375,64.453125,8.7890625,-114.74609375,-3.41796875
1510192046.2991192,37.109375,45.8984375,7.8125,314.453125,-11.23046875
1510192046.3030255,-0.9765625,38.0859375,7.32421875,272.94921875,2.44140625
1510192046.3196204,-129.39453125,38.0859375,5.37109375,-206.0546875,19.04296875
1510192046.3235266,-84.47265625,39.0625,4.8828125,-211.42578125,12.6953125
1510192046.3274329,30.2734375,37.59765625,5.859375,226.5625,7.32421875
1510192046.3313391,35.15625,36.1328125,5.859375,378.41796875,16.11328125
1510192046.3352454,-93.26171875,37.109375,8.7890625,-75.68359375,-22.4609375
1510192046.3391516,-120.60546875,34.1796875,8.30078125,-280.2734375,-43.9453125
1510192046.3430579,-11.23046875,35.64453125,7.8125,73.73046875,-37.59765625
1510192046.3469641,50.78125,37.109375,9.765625,380.859375,-6.34765625
1510192046.3508704,-62.01171875,34.66796875,8.7890625,70.80078125,17.578125
1510192046.3547766,-132.32421875,27.83203125,8.30078125,-279.296875,-33.203125
1510192046.3586829,-36.1328125,23.4375,8.7890625,-28.3203125,-18.06640625
1510192046.3625891,49.8046875,22.4609375,10.25390625,378.41796875,30.2734375
1510192046.3496385,-25.390625,24.90234375,13.18359375,202.1484375,33.203125
1510192046.3535447,-118.65234375,30.76171875,14.16015625,-254.39453125,-5.37109375
1510192046.357451,-46.875,33.69140625,12.6953125,-144.53125,-20.01953125
1510192046.3613572,64.453125,34.1796875,9.765625,300.29296875,34.66796875
1510192046.3652635,44.43359375,34.66796875,7.32421875,323.2421875,70.3125
1510192046.3691697,-83.49609375,34.66796875,11.23046875,-171.38671875,-8.30078125
1510192046.373076,-59.5703125,30.2734375,11.23046875,-246.58203125,-60.05859375
1510192046.3769822,62.01171875,25.87890625,9.27734375,192.87109375,-40.0390625
1510192046.3808885,88.37890625,23.92578125,9.27734375,396.97265625,-14.16015625
1510192046.3847947,-43.9453125,26.85546875,8.7890625,-51.26953125,8.7890625
1510192046.388701,-83.984375,28.3203125,6.8359375,-331.54296875,-12.20703125
1510192046.3926072,20.5078125,29.296875,0.9765625,31.73828125,2.9296875
1510192046.4096644,86.42578125,27.83203125,-0.48828125,416.015625,49.31640625
1510192046.4135706,-15.13671875,26.3671875,5.37109375,77.1484375,19.04296875
1510192046.417477,-97.16796875,30.76171875,5.859375,-324.21875,-48.33984375
1510192046.4213831,-18.06640625,30.76171875,1.953125,-72.265625,-33.69140625
1510192046.4252894,71.77734375,27.34375,-1.953125,351.07421875,3.90625
1510192046.4291956,2.9296875,29.296875,-0.9765625,200.1953125,-18.06640625
1510192046.433102,-110.83984375,31.25,2.44140625,-287.59765625,-33.69140625
1510192046.4370081,-51.7578125,29.78515625,0.9765625,-185.05859375,1.46484375
1510192046.4409144,58.59375,30.2734375,1.46484375,287.109375,30.76171875
1510192046.4448206,48.828125,31.73828125,5.37109375,324.70703125,10.7421875
1510192046.448727,-80.078125,29.296875,12.20703125,-160.64453125,-17.08984375
1510192046.4526331,-67.87109375,29.78515625,13.18359375,-252.9296875,-35.15625
1510192046.4546926,43.9453125,31.73828125,9.765625,160.15625,1.953125
1510192046.4585989,79.1015625,30.2734375,9.765625,403.3203125,28.3203125
1510192046.462505,-31.25,33.69140625,17.578125,-0.9765625,29.296875
1510192046.4664114,-79.1015625,36.1328125,20.99609375,-274.4140625,29.296875
1510192046.4703176,10.7421875,35.64453125,16.6015625,35.64453125,-7.32421875
1510192046.4742239,89.84375,38.57421875,11.71875,385.25390625,-20.99609375
1510192046.47813,-7.8125,41.50390625,8.7890625,116.69921875,-14.16015625
1510192046.4820364,-102.05078125,44.43359375,9.765625,-283.69140625,-25.390625
1510192046.4859426,-27.83203125,45.8984375,9.27734375,-89.35546875,-40.0390625
1510192046.4898489,65.91796875,46.38671875,6.8359375,298.33984375,-46.875
1510192046.493755,-1.953125,42.96875,4.8828125,218.75,8.30078125
1510192046.4976614,-144.04296875,34.66796875,10.25390625,-227.5390625,6.34765625
1510192046.4997263,-93.26171875,30.76171875,16.6015625,-221.6796875,-55.17578125
1510192046.5036325,22.4609375,29.296875,14.6484375,219.23828125,-13.18359375
1510192046.5075388,18.5546875,34.66796875,13.671875,349.12109375,39.55078125
1510192046.511445,-112.79296875,38.57421875,17.08984375,-135.25390625,9.27734375
1510192046.5153513,-124.51171875,34.66796875,15.13671875,-295.8984375,33.203125
1510192046.5192575,-11.23046875,35.64453125,10.25390625,99.609375,39.0625
1510192046.5231638,52.734375,36.62109375,8.30078125,387.20703125,29.78515625
1510192046.52707,-54.19921875,37.109375,10.7421875,18.5546875,22.94921875
1510192046.5309763,-107.91015625,39.0625,14.6484375,-314.94140625,-42.48046875
1510192046.5348825,-15.13671875,36.1328125,12.20703125,-32.2265625,-32.2265625
1510192046.5387888,71.2890625,37.59765625,8.7890625,397.94921875,43.9453125
1510192046.542695,-6.8359375,40.0390625,14.16015625,180.17578125,48.828125
1510192046.5442765,-103.02734375,41.015625,16.6015625,-290.0390625,5.37109375
1510192046.5481827,-23.4375,39.55078125,17.08984375,-132.8125,-16.6015625
1510192046.552089,79.1015625,34.1796875,17.578125,321.77734375,5.859375
1510192046.5559952,30.2734375,36.1328125,17.08984375,284.1796875,29.296875
1510192046.5599015,-90.33203125,41.015625,21.97265625,-206.54296875,4.8828125
1510192046.5638077,-51.26953125,41.50390625,20.01953125,-220.703125,-0.48828125
1510192046.567714,60.05859375,41.50390625,17.578125,217.28515625,21.484375
1510192046.5716202,75.68359375,41.015625,20.5078125,381.8359375,14.6484375
1510192046.5755265,-52.734375,42.48046875,22.4609375,-101.5625,-10.25390625
1510192046.5794327,-71.77734375,41.50390625,19.53125,-300.29296875,-10.25390625
1510192046.583339,31.73828125,39.55078125,15.13671875,111.81640625,-1.953125
1510192046.5872452,87.40234375,39.0625,14.6484375,411.62109375,17.578125
1510192046.6048167,-22.94921875,50.29296875,18.5546875,55.17578125,40.0390625
1510192046.608723,-97.16796875,66.89453125,19.04296875,-285.64453125,6.34765625
1510192046.6126292,-9.27734375,68.359375,15.625,-19.53125,23.4375
1510192046.6165354,76.171875,63.4765625,13.18359375,373.53515625,56.640625
1510192046.6204417,-0.9765625,58.10546875,15.625,183.10546875,25.87890625
1510192046.624348,-107.91015625,55.6640625,15.625,-275.390625,-19.53125
1510192046.6282542,-42.96875,42.96875,11.23046875,-152.34375,11.23046875
1510192046.6321604,52.734375,31.25,11.71875,286.62109375,31.73828125
1510192046.6360667,24.90234375,34.66796875,12.20703125,286.62109375,18.06640625
1510192046.639973,-99.609375,36.1328125,11.23046875,-169.43359375,35.64453125
1510192046.6438792,-75.68359375,34.1796875,11.71875,-215.33203125,38.57421875
1510192046.6477854,41.9921875,32.2265625,8.30078125,191.40625,8.30078125
1510192046.6343203,73.73046875,29.78515625,5.859375,394.53125,25.390625
1510192046.6382265,-49.31640625,29.78515625,9.765625,-21.484375,12.20703125
1510192046.6421328,-98.6328125,24.4140625,10.7421875,-266.11328125,-20.5078125
1510192046.646039,-6.8359375,17.578125,7.32421875,66.40625,4.8828125
1510192046.6499453,60.546875,14.6484375,7.8125,406.25,46.875
1510192046.6538515,-41.50390625,16.11328125,11.71875,96.19140625,68.359375
1510192046.6577578,-119.62890625,15.13671875,13.18359375,-307.6171875,30.2734375
1510192046.661664,-38.0859375,10.7421875,11.23046875,-84.47265625,5.859375
1510192046.6655703,52.734375,14.16015625,8.30078125,354.00390625,53.22265625
1510192046.6694765,-12.20703125,18.06640625,10.25390625,227.05078125,69.3359375
1510192046.6733828,-127.44140625,20.5078125,10.25390625,-272.4609375,7.32421875
1510192046.677289,-67.87109375,21.97265625,9.27734375,-238.28125,-29.296875
1510192046.6793518,43.45703125,19.53125,3.41796875,238.28125,19.04296875
1510192046.683258,34.1796875,18.06640625,2.9296875,347.65625,19.53125
1510192046.6871643,-92.7734375,19.04296875,9.27734375,-152.34375,-24.90234375
1510192046.6910706,-80.078125,22.94921875,11.23046875,-265.13671875,-23.4375
1510192046.6949768,33.203125,24.90234375,10.25390625,154.78515625,-4.39453125
1510192046.698883,71.2890625,25.87890625,7.32421875,404.296875,38.57421875
1510192046.7027893,-41.015625,28.80859375,9.27734375,-26.3671875,28.80859375
1510192046.7066956,-88.37890625,30.2734375,9.765625,-336.42578125,-26.3671875
1510192046.7106018,8.7890625,32.71484375,1.953125,19.04296875,8.30078125
1510192046.714508,85.44921875,35.64453125,0.48828125,405.76171875,43.45703125
1510192046.7184143,-28.3203125,28.80859375,6.8359375,108.3984375,17.578125
1510192046.7223206,-123.046875,22.4609375,13.18359375,-312.01171875,-24.4140625
1510192046.7392836,-28.80859375,25.87890625,13.18359375,-99.609375,-20.01953125
1510192046.7431898,68.84765625,29.296875,7.32421875,321.2890625,41.9921875
1510192046.747096,21.97265625,32.2265625,6.8359375,224.12109375,12.20703125
1510192046.7510023,-95.21484375,34.1796875,7.8125,-250.48828125,-24.4140625
1510192046.7549086,-54.6875,36.1328125,4.8828125,-214.35546875,-8.30078125
1510192046.7588148,56.640625,39.55078125,2.9296875,234.375,29.296875
1510192046.762721,58.59375,36.62109375,3.90625,313.4765625,28.80859375
1510192046.7666273,-72.75390625,36.1328125,5.859375,-161.62109375,-26.3671875
1510192046.7705336,-79.58984375,37.109375,5.37109375,-269.04296875,-14.16015625
1510192046.7744398,23.4375,33.69140625,7.32421875,110.83984375,11.71875
1510192046.778346,71.2890625,34.1796875,9.765625,371.58203125,-21.484375
1510192046.7822523,-41.015625,37.59765625,11.71875,-3.90625,-16.11328125
1510192046.7843156,-101.07421875,36.62109375,11.23046875,-329.58984375,-53.22265625
1510192046.7882218,-12.20703125,34.1796875,7.8125,-43.45703125,-33.203125
1510192046.792128,67.87109375,33.203125,10.25390625,351.5625,36.1328125
1510192046.7960343,-12.20703125,35.64453125,14.16015625,133.7890625,40.0390625
1510192046.7999406,-110.83984375,39.0625,15.13671875,-313.4765625,24.90234375
1510192046.8038468,-41.50390625,37.59765625,13.18359375,-178.22265625,0.48828125
1510192046.807753,55.6640625,35.15625,11.23046875,255.37109375,24.4140625
1510192046.8116593,17.08984375,35.15625,8.7890625,228.515625,23.92578125
1510192046.8155656,-105.95703125,32.71484375,6.34765625,-240.234375,-7.8125
1510192046.8194718,-67.3828125,33.203125,9.27734375,-272.94921875,-31.25
1510192046.823378,49.8046875,33.203125,7.32421875,144.04296875,10.7421875
1510192046.8272843,66.40625,32.2265625,2.9296875,353.02734375,72.75390625
1510192046.8293474,-59.08203125,32.2265625,7.32421875,-94.7265625,23.4375
1510192046.8332536,-78.125,32.71484375,9.765625,-311.5234375,-3.41796875
1510192046.8371599,26.85546875,37.109375,6.8359375,62.01171875,10.25390625
1510192046.8410661,81.0546875,40.0390625,7.32421875,384.765625,45.8984375
1510192046.8449724,-29.78515625,41.9921875,10.25390625,43.45703125,47.36328125
1510192046.8488786,-104.4921875,43.9453125,13.18359375,-325.1953125,20.5078125
1510192046.8527849,-14.16015625,46.38671875,11.71875,-72.265625,24.4140625
1510192046.8566911,73.2421875,47.36328125,10.25390625,350.09765625,40.0390625
1510192046.8605974,-17.578125,41.50390625,20.01953125,172.36328125,20.5078125
1510192046.8645036,-124.0234375,34.66796875,25.87890625,-310.546875,-38.57421875
1510192046.8684099,-56.640625,35.15625,23.92578125,-185.546875,-46.875
1510192046.8723161,41.015625,39.0625,18.06640625,286.1328125,-12.6953125
1510192046.8748622,12.6953125,34.66796875,18.06640625,308.59375,16.11328125
1510192046.8787684,-127.44140625,27.83203125,22.4609375,-191.40625,4.39453125
1510192046.8826747,-109.86328125,33.69140625,17.578125,-267.578125,-10.25390625
1510192046.886581,14.6484375,36.62109375,14.16015625,162.59765625,13.18359375
1510192046.8904872,41.015625,37.109375,10.7421875,367.67578125,44.921875
1510192046.8943934,-82.51953125,38.0859375,14.16015625,-74.21875,-0.9765625
1510192046.8982997,-95.21484375,36.1328125,20.01953125,-318.84765625,-73.73046875
1510192046.902206,22.94921875,34.66796875,18.5546875,51.7578125,19.53125
1510192046.9061122,93.26171875,32.71484375,19.53125,387.6953125,42.48046875
1510192046.9100184,-1.953125,35.15625,23.92578125,69.82421875,-15.13671875
1510192046.9139247,-76.171875,38.0859375,21.484375,-273.4375,-5.859375
1510192046.917831,11.23046875,38.0859375,17.08984375,-38.57421875,-9.27734375
1510192046.919411,102.05078125,33.69140625,11.23046875,356.4453125,30.76171875
1510192046.9233172,32.71484375,32.71484375,10.7421875,228.02734375,41.9921875
1510192046.9272234,-83.49609375,37.59765625,13.18359375,-239.2578125,26.3671875
1510192046.9311297,-38.57421875,34.66796875,13.18359375,-185.546875,32.71484375
1510192046.935036,60.546875,19.53125,20.01953125,264.6484375,10.7421875
1510192046.9389422,54.6875,27.83203125,19.04296875,344.7265625,28.3203125
1510192046.9428484,-89.35546875,45.41015625,6.8359375,-164.0625,30.76171875
1510192046.9467547,-116.2109375,48.828125,2.44140625,-305.17578125,-15.625
1510192046.950661,-23.4375,37.109375,5.859375,61.5234375,-49.31640625
1510192046.9545672,0.48828125,41.9921875,9.765625,305.17578125,8.30078125
1510192046.9584734,-138.671875,61.5234375,3.41796875,-76.66015625,22.4609375
1510192046.9623797,-184.08203125,66.89453125,8.30078125,-379.8828125,-40.0390625
1510192046.9644434,-75.1953125,66.40625,22.94921875,-59.08203125,-42.96875
1510192046.9683497,-29.78515625,54.6875,-3.41796875,276.85546875,-6.8359375
1510192046.972256,-130.859375,61.5234375,-18.06640625,-4.39453125,-1.953125
1510192046.9761622,-198.73046875,70.3125,-6.8359375,-394.04296875,-46.875
1510192046.9800684,-121.09375,63.4765625,-6.34765625,-203.125,-56.15234375
1510192046.9839747,-14.6484375,58.59375,-8.7890625,228.515625,-6.34765625
1510192046.987881,-62.98828125,54.19921875,-3.41796875,171.38671875,55.17578125
1510192046.9917872,-181.15234375,48.828125,2.44140625,-317.87109375,-24.4140625
1510192046.9956934,-120.60546875,50.29296875,1.46484375,-308.10546875,-34.66796875
1510192046.9995997,-3.41796875,41.015625,-4.39453125,187.5,62.01171875
1510192047.003506,-3.41796875,25.390625,-0.48828125,313.96484375,46.875
1510192047.0074122,-125.9765625,37.59765625,8.30078125,-175.29296875,9.27734375
1510192047.0254705,-133.7890625,45.8984375,0.9765625,-326.66015625,-8.7890625
1510192047.0293767,-24.90234375,45.8984375,-3.41796875,65.4296875,-1.46484375
1510192047.033283,22.94921875,46.875,1.953125,340.8203125,3.90625
1510192047.0371892,-92.7734375,44.921875,6.34765625,-39.55078125,-7.8125
1510192047.0410955,-147.94921875,45.41015625,9.27734375,-355.46875,-41.50390625
1510192047.0450017,-55.17578125,39.55078125,8.7890625,-65.91796875,-44.921875
1510192047.048908,23.92578125,34.1796875,8.30078125,334.47265625,7.8125
1510192047.0528142,-58.59375,36.62109375,9.765625,130.859375,7.8125
1510192047.0567205,-160.64453125,37.59765625,7.8125,-282.71484375,-17.578125
1510192047.0606267,-81.0546875,35.64453125,7.32421875,-96.6796875,-29.296875
1510192047.064533,31.25,32.2265625,6.8359375,332.03125,-6.8359375
1510192047.0684392,-4.39453125,29.78515625,6.34765625,277.83203125,-7.8125
1510192047.0544868,-123.53515625,31.73828125,11.23046875,-204.1015625,-35.64453125
1510192047.058393,-87.890625,34.1796875,12.20703125,-229.00390625,-26.3671875
1510192047.0622993,24.4140625,31.25,9.765625,185.546875,-12.6953125
1510192047.0662055,35.15625,30.2734375,15.625,359.86328125,6.34765625
1510192047.0701118,-89.35546875,33.203125,21.484375,-80.56640625,10.25390625
1510192047.074018,-107.421875,31.73828125,20.99609375,-288.57421875,-2.9296875
1510192047.0779243,-0.48828125,32.2265625,19.04296875,58.59375,-48.33984375
1510192047.0818305,62.5,34.1796875,13.18359375,375.0,-15.625
1510192047.0857368,-33.69140625,35.64453125,7.8125,56.640625,24.4140625
1510192047.089643,-93.26171875,35.64453125,7.8125,-298.828125,-50.78125
1510192047.0935493,-8.30078125,33.69140625,8.30078125,-65.91796875,-66.40625
1510192047.0974555,80.078125,34.1796875,9.765625,332.51953125,-12.20703125
1510192047.099519,11.23046875,38.57421875,11.23046875,195.80078125,20.99609375
1510192047.1034253,-96.19140625,39.55078125,9.27734375,-262.6953125,-64.94140625
1510192047.1073315,-35.64453125,36.1328125,5.37109375,-166.015625,-81.0546875
1510192047.1112378,60.05859375,35.15625,1.953125,274.90234375,-3.90625
1510192047.115144,31.73828125,38.57421875,0.9765625,306.15234375,18.06640625
1510192047.1190503,-98.6328125,41.50390625,2.9296875,-180.6640625,-23.4375
1510192047.1229565,-81.54296875,41.50390625,2.44140625,-292.48046875,-68.84765625
1510192047.1268628,21.97265625,38.0859375,0.0,140.13671875,-5.859375
1510192047.130769,47.36328125,37.59765625,1.953125,394.53125,41.50390625
1510192047.1346753,-66.89453125,36.1328125,8.30078125,-44.43359375,-24.4140625
1510192047.1385815,-93.75,37.109375,7.8125,-301.26953125,-23.4375
1510192047.1424878,-1.46484375,37.109375,1.953125,44.43359375,-13.671875
1510192047.159582,53.22265625,35.15625,-1.46484375,383.30078125,-14.6484375
1510192047.1634881,-42.96875,37.59765625,2.9296875,83.49609375,41.015625
1510192047.1673944,-116.2109375,40.52734375,10.25390625,-290.0390625,37.109375
1510192047.1713006,-24.4140625,41.015625,10.25390625,-65.4296875,15.13671875
1510192047.175207,73.73046875,38.0859375,6.8359375,360.3515625,63.4765625
1510192047.1791131,8.30078125,36.62109375,4.8828125,214.84375,-0.48828125
1510192047.1830194,-103.515625,38.57421875,45.8984375,-274.4140625,-39.55078125
1510192047.1869256,-43.45703125,37.59765625,77.63671875,-171.38671875,20.99609375
1510192047.190832,58.10546875,33.203125,53.22265625,283.69140625,40.0390625
1510192047.1947381,44.921875,33.203125,42.48046875,334.47265625,48.33984375
1510192047.1986444,-85.44921875,36.62109375,43.9453125,-152.83203125,24.90234375
1510192047.2025506,-81.54296875,38.0859375,43.45703125,-259.765625,-23.4375
1510192047.2046115,16.6015625,38.57421875,37.59765625,133.30078125,-5.859375
1510192047.2085178,44.921875,38.0859375,34.1796875,383.7890625,33.203125
1510192047.212424,-67.3828125,55.17578125,33.203125,-8.7890625,0.9765625
1510192047.2163303,-117.67578125,65.91796875,25.390625,-300.78125,-12.20703125
1510192047.2202365,-31.73828125,59.08203125,18.5546875,7.32421875,30.2734375
1510192047.2241428,36.62109375,57.12890625,14.6484375,349.12109375,37.59765625
1510192047.228049,-48.828125,55.6640625,18.5546875,88.37890625,23.4375
1510192047.2319553,-130.37109375,47.8515625,23.4375,-302.24609375,-25.390625
1510192047.2358615,-47.8515625,40.0390625,16.6015625,-101.5625,-53.7109375
1510192047.2397678,51.7578125,34.66796875,8.30078125,298.828125,-12.6953125
1510192047.243674,5.859375,33.69140625,8.30078125,241.69921875,11.71875
1510192047.2475803,-105.46875,36.1328125,12.20703125,-202.63671875,-35.15625
1510192047.2496278,-58.10546875,32.71484375,11.71875,-221.19140625,-67.3828125
1510192047.253534,49.31640625,30.76171875,11.23046875,214.35546875,-7.32421875
1510192047.2574403,52.734375,32.71484375,11.23046875,357.421875,19.04296875
1510192047.2613466,-68.359375,34.66796875,15.13671875,-108.3984375,-16.11328125
1510192047.2652528,-78.61328125,33.69140625,15.13671875,-282.2265625,-52.734375
1510192047.269159,16.6015625,31.25,13.18359375,97.16796875,-38.57421875
1510192047.2730653,61.03515625,33.203125,20.01953125,400.390625,44.43359375
1510192047.2769716,-47.8515625,35.64453125,20.5078125,33.69140625,35.64453125
1510192047.2808778,-112.3046875,33.69140625,21.97265625,-315.4296875,-46.875
1510192047.284784,-26.3671875,31.25,22.94921875,-35.64453125,-48.828125
1510192047.2886903,55.6640625,31.25,16.6015625,393.06640625,8.30078125
1510192047.2925966,-25.87890625,31.73828125,18.5546875,196.2890625,9.765625
1510192047.2946572,-121.58203125,31.73828125,20.5078125,-265.625,-10.25390625
1510192047.2985635,-46.38671875,30.2734375,19.53125,-132.8125,-48.33984375
1510192047.3024697,54.19921875,29.296875,17.08984375,315.91796875,-2.44140625
1510192047.306376,18.5546875,31.25,16.11328125,292.48046875,34.1796875
1510192047.3102822,-96.6796875,39.0625,15.625,-188.96484375,-17.08984375
1510192047.3141885,-66.40625,37.109375,17.08984375,-222.16796875,-45.41015625
1510192047.3180947,21.484375,24.4140625,21.484375,201.171875,4.39453125
1510192047.322001,31.73828125,15.625,25.390625,390.13671875,34.66796875
1510192047.3259072,-72.265625,20.01953125,29.296875,-75.1953125,-30.2734375
1510192047.3298135,-75.1953125,32.2265625,27.83203125,-263.18359375,-37.109375
1510192047.3337197,11.71875,32.2265625,28.80859375,125.48828125,-34.1796875
1510192047.337626,60.05859375,20.5078125,32.2265625,423.828125,-19.04296875
1510192047.3396916,-28.80859375,18.06640625,32.71484375,97.65625,7.32421875
1510192047.343598,-88.37890625,22.94921875,29.78515625,-249.0234375,-20.99609375
1510192047.3475041,-2.9296875,17.08984375,30.2734375,1.46484375,11.71875
1510192047.3514104,91.30859375,15.13671875,31.73828125,393.5546875,71.77734375
1510192047.3553166,27.34375,18.5546875,29.296875,234.375,41.50390625
1510192047.359223,-86.9140625,15.625,32.71484375,-207.51953125,-1.46484375
1510192047.3631291,-12.20703125,12.6953125,36.1328125,-102.5390625,13.18359375
1510192047.3670354,93.75,16.11328125,30.76171875,314.94140625,-2.9296875
1510192047.3709416,60.05859375,19.04296875,27.34375,318.359375,-16.11328125
1510192047.374848,-57.12890625,20.5078125,31.25,-137.20703125,-46.38671875
1510192047.3787541,-43.9453125,20.99609375,33.203125,-211.42578125,-73.2421875
1510192047.3826604,53.7109375,20.5078125,33.203125,192.87109375,3.90625
1510192047.4142632,83.49609375,24.4140625,37.59765625,407.71484375,51.7578125
1510192047.4181695,-24.4140625,24.4140625,41.015625,-8.7890625,30.2734375
1510192047.4220757,-55.17578125,18.06640625,39.55078125,-253.90625,-39.0625
1510192047.425982,39.0625,12.6953125,38.0859375,70.80078125,-45.8984375
1510192047.4298882,109.86328125,15.625,31.73828125,415.0390625,33.203125
1510192047.4337945,13.671875,17.578125,29.296875,132.8125,28.80859375
1510192047.4377007,-73.73046875,13.18359375,30.2734375,-257.8125,-26.3671875
1510192047.441607,3.41796875,14.16015625,29.296875,-67.3828125,-64.453125
1510192047.4455132,91.796875,14.16015625,27.83203125,364.74609375,-5.859375
1510192047.4494195,32.71484375,13.18359375,31.25,293.45703125,32.71484375
1510192047.4533257,-85.44921875,17.08984375,35.64453125,-187.01171875,-33.69140625
1510192047.457232,-41.9921875,18.06640625,36.62109375,-145.5078125,-59.5703125
1510192047.4292526,55.6640625,19.04296875,36.1328125,308.59375,4.39453125
1510192047.4331589,36.62109375,21.97265625,37.59765625,399.4140625,66.89453125
1510192047.4370651,-94.7265625,24.4140625,39.0625,-96.6796875,55.6640625
1510192047.4409714,-86.42578125,23.92578125,36.1328125,-232.421875,-5.37109375
1510192047.4448776,20.01953125,24.4140625,33.203125,183.10546875,-11.23046875
1510192047.4487839,54.6875,27.34375,30.76171875,439.453125,4.8828125
1510192047.4526901,-51.26953125,31.73828125,29.78515625,30.76171875,-10.7421875
1510192047.4565964,-92.7734375,32.2265625,29.296875,-256.34765625,-21.97265625
1510192047.4605026,4.8828125,30.2734375,29.296875,66.89453125,-17.08984375
1510192047.4644089,86.9140625,28.80859375,30.76171875,445.3125,27.34375
1510192047.4683151,-3.90625,27.83203125,34.1796875,195.3125,31.25
1510192047.4722214,-75.68359375,26.85546875,38.0859375,-229.4921875,-27.83203125
1510192047.4742916,16.11328125,30.2734375,34.1796875,-43.9453125,-19.04296875
1510192047.4781978,102.05078125,35.15625,25.390625,383.7890625,35.15625
1510192047.482104,59.5703125,32.71484375,30.2734375,295.8984375,34.1796875
1510192047.4860103,-50.78125,34.66796875,34.1796875,-185.05859375,44.43359375
1510192047.4899166,-8.30078125,34.1796875,32.71484375,-148.92578125,45.8984375
1510192047.4938228,99.12109375,31.25,32.71484375,273.4375,3.90625
1510192047.497729,94.7265625,30.76171875,31.25,351.5625,29.296875
1510192047.5016353,-34.1796875,29.296875,30.2734375,-111.81640625,43.45703125
1510192047.5055416,-43.9453125,26.3671875,31.25,-241.69921875,-13.18359375
1510192047.5094478,51.7578125,26.85546875,31.73828125,118.65234375,3.41796875
1510192047.513354,92.28515625,29.78515625,29.78515625,394.53125,54.19921875
1510192047.5172603,-19.04296875,34.1796875,31.73828125,35.64453125,7.8125
1510192047.5348272,-77.63671875,35.15625,31.73828125,-301.7578125,-37.59765625
1510192047.5387335,10.7421875,32.71484375,24.90234375,-29.296875,-23.4375
1510192047.5426397,86.42578125,31.73828125,19.04296875,354.4921875,-1.46484375
1510192047.546546,7.8125,34.66796875,21.484375,157.2265625,25.390625
1510192047.5504522,-86.42578125,35.64453125,24.4140625,-271.97265625,9.765625
1510192047.5543585,-23.4375,42.48046875,24.90234375,-160.64453125,-25.390625
1510192047.5582647,73.73046875,59.5703125,23.4375,262.20703125,16.11328125
1510192047.562171,36.1328125,62.98828125,24.4140625,277.34375,53.7109375
1510192047.5660772,-92.28515625,60.546875,24.90234375,-193.359375,6.34765625
1510192047.5699835,-58.10546875,60.05859375,23.4375,-256.8359375,-11.23046875
1510192047.5738897,55.17578125,62.5,21.97265625,165.0390625,18.06640625
1510192047.577796,70.3125,61.5234375,18.06640625,371.58203125,0.9765625
1510192047.5943902,-50.29296875,64.453125,19.53125,-70.80078125,-17.08984375
1510192047.5982964,-64.453125,65.4296875,23.92578125,-291.015625,-19.04296875
1510192047.6022027,35.15625,58.59375,21.484375,59.5703125,-15.13671875
1510192047.606109,93.26171875,49.31640625,16.6015625,395.01953125,26.3671875
1510192047.6100152,-6.8359375,39.55078125,16.6015625,79.58984375,35.15625
1510192047.6139214,-74.21875,38.57421875,14.16015625,-304.19921875,-20.99609375
1510192047.6178277,12.20703125,36.62109375,15.13671875,-64.94140625,-36.62109375
1510192047.621734,89.35546875,31.25,14.6484375,345.21484375,8.30078125
1510192047.6256402,16.11328125,34.1796875,17.08984375,187.98828125,29.78515625
1510192047.6295464,-93.26171875,40.52734375,23.4375,-296.875,-29.78515625
1510192047.6334527,-38.0859375,39.55078125,18.5546875,-203.125,-53.7109375
1510192047.637359,59.5703125,37.59765625,14.16015625,271.484375,-2.9296875
1510192047.6394224,29.296875,35.15625,16.11328125,283.69140625,9.765625
1510192047.6433287,-92.7734375,36.62109375,20.01953125,-214.84375,-20.5078125
1510192047.647235,-73.73046875,39.0625,18.06640625,-272.94921875,-19.53125
1510192047.6511412,31.73828125,36.1328125,14.6484375,149.4140625,-18.06640625
1510192047.6550474,68.84765625,34.66796875,13.18359375,360.83984375,20.5078125
1510192047.6589537,-38.0859375,35.15625,13.671875,-63.96484375,40.0390625
1510192047.66286,-74.70703125,34.66796875,14.16015625,-309.08203125,8.7890625
1510192047.6667662,24.4140625,34.1796875,16.11328125,52.734375,51.7578125
1510192047.6706724,90.33203125,33.69140625,16.11328125,393.5546875,98.14453125
1510192047.6745787,-5.859375,34.1796875,13.671875,90.8203125,71.77734375
1510192047.678485,-87.890625,33.203125,10.25390625,-290.52734375,31.73828125
1510192047.6823912,-18.5546875,27.83203125,11.23046875,-79.58984375,5.37109375
1510192047.6694252,68.359375,21.484375,15.625,317.3828125,12.6953125
1510192047.6733315,11.23046875,32.71484375,11.23046875,184.08203125,28.80859375
1510192047.6772377,-106.93359375,42.96875,8.30078125,-255.37109375,14.16015625
1510192047.681144,-44.43359375,37.109375,12.6953125,-180.17578125,14.16015625
1510192047.6850502,62.01171875,38.57421875,8.7890625,254.39453125,56.15234375
1510192047.6889565,41.50390625,43.45703125,3.90625,327.63671875,77.1484375
1510192047.6928627,-74.70703125,44.43359375,7.32421875,-143.5546875,31.25
1510192047.696769,-70.3125,41.015625,6.8359375,-276.85546875,-26.85546875
1510192047.7006752,33.69140625,39.0625,3.41796875,114.74609375,4.8828125
1510192047.7045815,75.68359375,41.9921875,1.46484375,384.765625,59.5703125
1510192047.7084877,-39.55078125,42.96875,7.8125,-2.9296875,43.9453125
1510192047.712394,-86.42578125,41.50390625,13.671875,-309.08203125,-27.34375
1510192047.7144551,6.8359375,38.57421875,10.25390625,-29.78515625,-31.25
1510192047.7183614,85.9375,40.0390625,7.8125,365.72265625,13.671875
1510192047.7222676,5.37109375,42.96875,7.8125,156.73828125,9.765625
1510192047.7261739,-84.9609375,43.45703125,7.32421875,-283.69140625,-24.4140625
1510192047.7300801,-0.48828125,47.8515625,7.8125,-115.234375,-27.83203125
1510192047.7339864,100.5859375,50.78125,7.32421875,326.171875,6.8359375
1510192047.7378926,55.6640625,48.33984375,8.30078125,270.01953125,11.71875
1510192047.7417989,-56.15234375,50.29296875,12.6953125,-214.35546875,-26.3671875
1510192047.7457051,-23.92578125,53.22265625,12.6953125,-225.09765625,-29.296875
1510192047.7496114,75.1953125,47.8515625,9.27734375,232.91015625,40.52734375
1510192047.7535176,76.171875,42.48046875,7.32421875,377.9296875,48.828125
1510192047.7574239,-51.26953125,44.43359375,6.8359375,-111.328125,-8.7890625
1510192047.7601511,-64.453125,47.36328125,2.9296875,-289.55078125,-29.296875
1510192047.7640574,28.80859375,42.48046875,-2.9296875,94.23828125,15.625
1510192047.7679636,72.75390625,36.1328125,0.9765625,381.34765625,22.4609375
1510192047.77187,-32.71484375,37.109375,4.8828125,11.23046875,-15.625
1510192047.7757761,-91.30859375,40.52734375,5.37109375,-319.3359375,-23.4375
1510192047.7796824,-4.39453125,41.015625,6.34765625,-36.1328125,-30.2734375
1510192047.7835886,77.1484375,39.55078125,4.39453125,357.421875,24.4140625
1510192047.787495,0.9765625,40.52734375,8.7890625,138.671875,-12.20703125
1510192047.7914011,-94.7265625,44.43359375,15.13671875,-296.38671875,-74.70703125
1510192047.7953074,-26.85546875,42.96875,12.6953125,-135.25390625,-73.2421875
1510192047.7992136,70.80078125,39.0625,10.7421875,304.6875,-11.71875
1510192047.80312,37.59765625,39.55078125,13.18359375,295.41015625,39.0625
1510192047.8046818,-82.03125,40.0390625,16.11328125,-183.10546875,-11.23046875
1510192047.808588,-46.875,41.015625,17.08984375,-222.65625,-17.08984375
1510192047.8124943,60.546875,39.0625,17.578125,180.17578125,14.16015625
1510192047.8164005,67.3828125,34.1796875,18.06640625,371.58203125,69.82421875
1510192047.8203068,-57.12890625,31.73828125,21.97265625,-52.24609375,26.85546875
1510192047.824213,-80.56640625,35.64453125,21.484375,-278.3203125,-33.69140625
1510192047.8281193,16.6015625,37.59765625,18.06640625,56.15234375,-36.62109375
1510192047.8320255,73.2421875,35.64453125,16.11328125,361.328125,-19.04296875
1510192047.8359318,-31.73828125,33.69140625,12.6953125,75.1953125,4.39453125
1510192047.839838,-109.375,32.2265625,10.7421875,-269.04296875,-16.11328125
1510192047.8437443,-20.99609375,34.66796875,8.30078125,-37.59765625,-26.3671875
1510192047.8476505,66.89453125,38.57421875,8.7890625,360.83984375,19.53125
1510192047.849719,0.9765625,42.96875,14.6484375,212.40234375,35.15625
1510192047.8536253,-106.93359375,45.41015625,16.11328125,-241.2109375,-3.41796875
1510192047.8575315,-57.12890625,42.96875,13.18359375,-159.66796875,-0.48828125
1510192047.8614378,42.96875,41.50390625,9.765625,276.85546875,44.921875
1510192047.865344,20.01953125,45.41015625,9.27734375,320.80078125,49.8046875
1510192047.8692503,-102.5390625,49.8046875,14.6484375,-150.390625,6.8359375
1510192047.8731565,-81.54296875,52.24609375,14.6484375,-259.27734375,-34.1796875
1510192047.8770628,24.90234375,52.734375,10.25390625,142.08984375,-8.30078125
1510192047.880969,47.8515625,50.29296875,11.71875,405.76171875,37.109375
1510192047.8848753,-68.359375,50.29296875,16.6015625,-12.6953125,20.99609375
1510192047.8887815,-103.02734375,47.8515625,14.6484375,-296.38671875,-20.01953125
1510192047.8926878,-7.8125,42.48046875,7.32421875,37.59765625,-27.34375
1510192047.909758,63.96484375,38.0859375,8.30078125,407.71484375,30.2734375
1510192047.9136643,-27.83203125,39.0625,11.71875,125.0,38.57421875
1510192047.9175706,-120.60546875,46.875,2.9296875,-293.45703125,2.9296875
1510192047.9214768,-42.96875,49.8046875,1.46484375,-80.078125,-20.01953125
1510192047.925383,48.828125,49.8046875,1.46484375,353.02734375,5.859375
1510192047.9292893,-10.7421875,54.6875,-1.953125,222.65625,-15.13671875
1510192047.9331956,-125.0,55.17578125,24.90234375,-262.6953125,-67.3828125
1510192047.9371018,-72.75390625,49.8046875,49.8046875,-183.59375,-82.03125
1510192047.941008,38.57421875,42.48046875,34.1796875,264.16015625,-22.4609375
1510192047.9449143,34.66796875,42.48046875,23.4375,333.49609375,35.15625
1510192047.9488206,-90.8203125,50.78125,21.484375,-140.13671875,-11.71875
1510192047.9527268,-84.47265625,53.22265625,20.5078125,-256.34765625,-20.5078125
1510192047.9542906,21.97265625,60.546875,16.6015625,135.7421875,-8.30078125
1510192047.9581969,57.6171875,73.73046875,13.671875,387.20703125,21.484375
1510192047.9621031,-56.15234375,75.68359375,12.6953125,-8.30078125,15.625
1510192047.9660094,-109.375,66.89453125,12.20703125,-304.19921875,-35.15625
1510192047.9699156,-23.92578125,64.453125,13.671875,-6.34765625,0.48828125
1510192047.9738219,47.8515625,72.265625,15.625,353.02734375,39.55078125
1510192047.9777281,-31.25,78.125,16.11328125,117.1875,41.50390625
1510192047.9816344,-117.67578125,72.75390625,13.18359375,-291.50390625,-14.6484375
1510192047.9855406,-48.33984375,65.91796875,11.71875,-114.2578125,-52.734375
1510192047.9894469,45.41015625,58.59375,8.7890625,292.48046875,25.87890625
1510192047.9933531,3.90625,50.78125,6.34765625,248.046875,54.19921875
1510192047.9972594,-107.91015625,48.828125,13.18359375,-184.08203125,1.953125
1510192047.9993222,-62.98828125,42.96875,13.671875,-194.3359375,-34.66796875
1510192048.0032284,45.41015625,36.62109375,9.765625,223.6328125,5.859375
1510192048.0071347,50.78125,37.59765625,9.765625,373.046875,6.34765625
1510192048.011041,-70.80078125,40.0390625,11.71875,-81.54296875,-34.1796875
1510192048.0149472,-81.0546875,38.0859375,11.71875,-262.20703125,8.7890625
1510192048.0188534,26.3671875,36.1328125,13.18359375,106.93359375,-5.37109375
1510192048.0227597,78.61328125,35.64453125,12.6953125,397.4609375,-2.44140625
1510192048.026666,-32.2265625,30.2734375,13.671875,55.6640625,23.4375
1510192048.0305722,-95.703125,28.3203125,31.73828125,-290.52734375,-21.97265625
1510192048.0344784,-9.765625,31.73828125,32.71484375,-46.38671875,0.0
1510192048.0383847,70.3125,31.25,20.01953125,375.9765625,61.5234375
1510192048.042291,-6.8359375,31.73828125,21.484375,191.40625,30.2734375
1510192048.0448728,-110.3515625,31.73828125,22.4609375,-270.5078125,-13.671875
1510192048.048779,-43.45703125,31.25,20.01953125,-137.20703125,-7.8125
1510192048.0526853,57.12890625,36.1328125,18.5546875,313.4765625,41.015625
1510192048.0565915,20.01953125,41.015625,20.01953125,302.734375,81.54296875
1510192048.0604978,-110.83984375,40.0390625,24.90234375,-191.89453125,28.80859375
1510192048.064404,-90.33203125,35.64453125,24.4140625,-242.1875,-14.6484375
1510192048.0683103,21.484375,38.0859375,21.97265625,183.10546875,25.390625
1510192048.0722165,51.7578125,42.96875,20.01953125,375.0,46.875
1510192048.0761228,-70.3125,39.0625,20.5078125,-89.35546875,25.390625
1510192048.080029,-93.26171875,29.296875,19.04296875,-303.7109375,14.16015625
1510192048.0839353,33.203125,26.3671875,14.6484375,106.93359375,16.11328125
1510192048.0878415,85.44921875,36.62109375,7.32421875,400.87890625,1.46484375
1510192048.089386,-43.9453125,39.55078125,1.953125,47.36328125,15.625
1510192048.0932922,-114.74609375,34.66796875,2.44140625,-309.5703125,30.2734375
1510192048.0971985,-42.48046875,38.57421875,-3.41796875,-93.26171875,36.62109375
1510192048.1011047,27.83203125,40.0390625,-10.7421875,281.73828125,92.28515625
1510192048.105011,-33.69140625,45.41015625,-10.7421875,123.046875,62.98828125
1510192048.1089172,-155.2734375,54.19921875,-10.25390625,-340.33203125,-15.625
1510192048.1128235,-113.76953125,53.7109375,-9.27734375,-254.8828125,-5.859375
1510192048.1167297,-21.484375,51.26953125,-12.6953125,172.36328125,26.3671875
1510192048.120636,-40.52734375,55.6640625,-18.5546875,192.87109375,30.76171875
1510192048.1245422,-160.15625,50.29296875,-20.01953125,-269.04296875,-25.87890625
1510192048.1284485,-145.01953125,42.96875,-20.01953125,-329.1015625,-25.390625
1510192048.1323547,-33.69140625,49.8046875,-22.4609375,77.1484375,28.3203125
1510192048.1344175,-16.11328125,49.8046875,-18.5546875,294.921875,77.63671875
1510192048.1383238,-133.30078125,48.33984375,-12.20703125,-117.67578125,20.5078125
1510192048.14223,-169.921875,47.36328125,-16.6015625,-393.5546875,-44.43359375
1510192048.1461363,-76.171875,41.015625,-15.625,-60.546875,7.32421875
1510192048.1500425,-9.27734375,40.52734375,-10.7421875,304.6875,49.31640625
1510192048.1539488,-108.3984375,45.41015625,-11.23046875,28.80859375,43.9453125
1510192048.157855,-183.59375,48.828125,-5.859375,-376.46484375,-12.20703125
1510192048.1617613,-96.6796875,49.31640625,-3.41796875,-197.75390625,-67.87109375
1510192048.1656675,-0.9765625,51.26953125,-9.27734375,245.60546875,-25.390625
1510192048.1695738,-49.8046875,48.33984375,-8.30078125,194.82421875,-9.27734375
1510192048.17348,-153.80859375,44.43359375,-5.859375,-294.43359375,-69.3359375
1510192048.1773863,-99.12109375,40.52734375,-10.25390625,-269.53125,-75.1953125
1510192048.17945,10.25390625,37.109375,-11.23046875,186.03515625,-16.11328125
1510192048.1833563,3.41796875,36.1328125,-8.7890625,302.734375,23.92578125
1510192048.1872625,-120.1171875,38.0859375,-4.39453125,-171.38671875,-30.2734375
1510192048.1911688,-115.234375,39.55078125,-3.90625,-313.4765625,-57.12890625
1510192048.195075,-13.18359375,36.62109375,-5.37109375,90.8203125,5.859375
1510192048.1989813,34.1796875,37.59765625,-4.8828125,361.81640625,64.94140625
1510192048.2028875,-68.84765625,39.0625,0.48828125,-36.1328125,18.5546875
1510192048.2067938,-112.3046875,39.55078125,3.41796875,-358.3984375,-46.875
1510192048.2107,-19.53125,42.48046875,2.44140625,-22.4609375,-24.90234375
1510192048.2146063,55.6640625,41.9921875,5.37109375,368.65234375,0.48828125
1510192048.2185125,-19.53125,41.50390625,12.20703125,116.69921875,-34.1796875
1510192048.2224188,-104.4921875,44.43359375,14.6484375,-303.22265625,-44.43359375
1510192048.224487,-36.1328125,43.9453125,8.7890625,-139.6484375,-30.2734375
1510192048.2283933,56.640625,36.1328125,4.8828125,282.71484375,18.06640625
1510192048.2322996,17.578125,36.62109375,8.30078125,227.05078125,24.90234375
1510192048.2362058,-99.609375,39.55078125,9.765625,-252.9296875,-41.50390625
1510192048.240112,-65.4296875,39.0625,10.25390625,-246.09375,-67.3828125
1510192048.2440183,35.64453125,35.64453125,9.27734375,189.453125,-28.3203125
1510192048.2479246,42.96875,38.57421875,11.23046875,315.91796875,-11.71875
1510192048.2518308,-72.75390625,44.921875,12.20703125,-133.7890625,-29.296875
1510192048.255737,-76.66015625,44.43359375,14.16015625,-272.4609375,-52.24609375
1510192048.2596433,19.04296875,44.43359375,11.71875,95.703125,-58.10546875
1510192048.2635496,62.98828125,47.36328125,5.859375,373.046875,-18.5546875
1510192048.2674558,-36.1328125,50.29296875,10.25390625,34.66796875,-18.06640625
1510192048.2845242,-102.5390625,50.29296875,13.18359375,-303.7109375,-63.4765625
1510192048.2884305,-26.3671875,43.9453125,11.23046875,-54.19921875,-41.9921875
1510192048.2923367,52.734375,39.55078125,10.25390625,340.33203125,24.90234375
1510192048.296243,-20.01953125,41.9921875,15.13671875,170.41015625,47.8515625
1510192048.3001492,-118.65234375,40.52734375,21.484375,-259.27734375,-6.8359375
1510192048.3040555,-51.26953125,38.0859375,18.06640625,-154.78515625,-32.2265625
1510192048.3079617,52.734375,37.59765625,16.6015625,261.71875,0.0
1510192048.311868,26.85546875,36.1328125,13.18359375,282.71484375,35.15625
1510192048.3157742,-89.35546875,39.55078125,10.25390625,-176.7578125,-3.41796875
1510192048.3196805,-55.17578125,43.45703125,15.13671875,-237.3046875,-20.01953125
1510192048.3235867,44.921875,37.59765625,14.16015625,175.78125,18.5546875
1510192048.327493,61.03515625,32.71484375,12.6953125,385.7421875,41.50390625
1510192048.3300571,-50.29296875,34.66796875,15.13671875,-45.8984375,35.64453125
1510192048.3339634,-71.77734375,38.57421875,16.11328125,-291.50390625,-8.30078125
1510192048.3378696,28.80859375,40.0390625,11.23046875,59.08203125,-1.46484375
1510192048.341776,86.42578125,38.57421875,5.859375,400.87890625,25.390625
1510192048.3456821,-18.5546875,40.0390625,11.71875,80.078125,9.27734375
1510192048.3495884,-93.75,43.45703125,16.11328125,-305.6640625,-24.4140625
1510192048.3534946,-12.20703125,44.43359375,16.11328125,-83.984375,-15.625
1510192048.357401,67.87109375,43.9453125,17.08984375,335.9375,25.87890625
1510192048.3613071,-6.8359375,45.41015625,21.97265625,209.9609375,27.83203125
1510192048.3652134,-117.1875,49.8046875,27.83203125,-274.4140625,-32.71484375
1510192048.3691196,-58.59375,51.7578125,26.3671875,-188.96484375,-21.484375
1510192048.373026,40.0390625,49.31640625,20.01953125,288.57421875,29.296875
1510192048.3745892,20.5078125,48.828125,18.06640625,323.73046875,26.85546875
1510192048.3784955,-96.6796875,50.78125,20.99609375,-160.64453125,11.71875
1510192048.3824017,-79.58984375,50.29296875,21.97265625,-239.2578125,0.9765625
1510192048.386308,25.87890625,49.8046875,21.97265625,157.71484375,-20.5078125
1510192048.3902142,51.7578125,48.828125,24.90234375,371.58203125,-10.7421875
1510192048.3941205,-58.59375,51.7578125,29.296875,-43.9453125,-15.625
1510192048.3980267,-92.28515625,58.59375,27.34375,-312.98828125,-57.12890625
1510192048.401933,5.37109375,62.01171875,24.90234375,28.80859375,-35.15625
1510192048.4058392,69.3359375,58.59375,20.5078125,380.37109375,16.11328125
1510192048.4097455,-31.25,52.24609375,17.08984375,95.21484375,40.0390625
1510192048.4136517,-104.98046875,47.36328125,16.11328125,-267.08984375,23.4375
1510192048.417558,-23.4375,47.36328125,11.71875,-63.4765625,11.71875
1510192048.4196181,67.87109375,49.8046875,9.27734375,353.02734375,42.48046875
1510192048.4235244,15.625,49.31640625,9.765625,271.484375,17.578125
1510192048.4274306,-97.65625,47.36328125,12.20703125,-196.2890625,-12.6953125
1510192048.4313369,-52.24609375,45.41015625,13.671875,-170.41015625,-9.765625
1510192048.4352431,48.33984375,44.921875,14.16015625,257.32421875,-15.13671875
1510192048.4391494,41.015625,46.875,16.11328125,365.72265625,15.625
1510192048.4430556,-84.47265625,47.8515625,19.04296875,-90.33203125,32.2265625
1510192048.4469619,-89.35546875,47.8515625,20.99609375,-225.5859375,17.08984375
1510192048.4508681,12.6953125,41.9921875,16.6015625,119.140625,-7.32421875
1510192048.4547744,54.6875,37.59765625,11.23046875,385.7421875,24.4140625
1510192048.4586806,-50.29296875,40.52734375,14.6484375,63.96484375,44.921875
1510192048.4625869,-93.75,38.57421875,16.11328125,-249.0234375,-20.5078125
1510192048.464652,3.41796875,38.0859375,13.18359375,32.71484375,9.765625
1510192048.4685583,81.0546875,40.0390625,10.7421875,399.4140625,73.2421875
1510192048.4724646,-4.39453125,40.52734375,10.7421875,158.69140625,72.75390625
1510192048.4763708,-93.75,42.96875,14.16015625,-264.6484375,14.6484375
1510192048.480277,-16.6015625,41.9921875,11.71875,-105.95703125,4.39453125
1510192048.4841833,77.1484375,40.0390625,9.27734375,329.1015625,45.41015625
1510192048.4880896,30.2734375,39.0625,11.23046875,287.109375,75.68359375
1510192048.4919958,-90.8203125,44.921875,14.6484375,-200.68359375,28.3203125
1510192048.495902,-51.26953125,49.31640625,11.23046875,-226.5625,2.9296875
1510192048.4998083,47.8515625,41.50390625,5.37109375,222.65625,32.71484375
1510192048.5037146,50.29296875,39.0625,9.765625,382.8125,31.73828125
1510192048.5076208,-66.89453125,45.8984375,15.13671875,-93.26171875,18.5546875
1510192048.5096843,-87.40234375,45.41015625,13.671875,-287.59765625,-24.4140625
1510192048.5135906,9.765625,40.52734375,12.6953125,86.9140625,-38.57421875
1510192048.5174968,60.05859375,39.0625,16.11328125,383.30078125,20.99609375
1510192048.521403,-47.8515625,41.9921875,21.484375,36.1328125,36.1328125
1510192048.5253093,-106.93359375,42.48046875,22.94921875,-301.26953125,-20.01953125
1510192048.5292156,-15.13671875,45.41015625,21.97265625,-36.62109375,13.18359375
1510192048.5331218,63.4765625,46.875,22.94921875,354.98046875,54.19921875
1510192048.537028,-19.53125,44.43359375,19.53125,135.7421875,2.44140625
1510192048.5409343,-119.140625,45.8984375,16.6015625,-304.19921875,-12.20703125
1510192048.5448406,-49.8046875,44.43359375,15.13671875,-136.23046875,16.6015625
1510192048.5487468,53.22265625,39.55078125,12.6953125,285.64453125,24.4140625
1510192048.552653,22.94921875,40.0390625,11.71875,279.296875,49.31640625
1510192048.5547144,-100.5859375,40.52734375,16.11328125,-192.87109375,24.90234375
1510192048.5586207,-70.80078125,41.015625,18.06640625,-236.81640625,-2.9296875
1510192048.562527,37.109375,41.50390625,18.5546875,180.6640625,35.15625
1510192048.5664332,56.15234375,36.62109375,20.99609375,365.72265625,47.36328125
1510192048.5703394,-58.59375,41.015625,20.5078125,-52.734375,43.9453125
1510192048.5742457,-76.171875,46.875,20.5078125,-275.390625,46.38671875
1510192048.578152,22.4609375,42.48046875,19.04296875,44.43359375,25.87890625
1510192048.5820582,83.49609375,37.59765625,18.06640625,349.609375,32.71484375
1510192048.5859644,-12.6953125,36.62109375,19.53125,78.125,29.296875
1510192048.5898707,-81.54296875,36.1328125,21.484375,-266.6015625,-21.484375
1510192048.593777,5.859375,32.2265625,22.4609375,-50.29296875,-18.06640625
1510192048.5976832,90.33203125,31.73828125,19.04296875,351.5625,-4.39453125
1510192048.5992658,28.3203125,38.0859375,21.97265625,221.19140625,-32.71484375
1510192048.603172,-80.56640625,43.45703125,23.4375,-238.76953125,-55.6640625
1510192048.6070783,-29.296875,42.96875,20.01953125,-169.43359375,-23.92578125
1510192048.6109846,72.265625,38.57421875,18.5546875,269.53125,6.34765625
1510192048.6148908,52.734375,40.0390625,18.06640625,330.56640625,-20.5078125
1510192048.618797,-81.54296875,38.0859375,20.01953125,-154.296875,-20.99609375
1510192048.6227033,-78.61328125,33.69140625,17.578125,-283.69140625,-40.0390625
1510192048.6266096,26.3671875,34.1796875,14.6484375,121.58203125,-29.296875
1510192048.6305158,56.640625,33.69140625,41.9921875,390.13671875,26.85546875
1510192048.634422,-62.5,35.15625,52.734375,-28.3203125,-10.25390625
1510192048.6383283,-107.421875,35.15625,37.59765625,-324.21875,-34.1796875
1510192048.6422346,-10.25390625,34.66796875,26.3671875,9.27734375,-18.5546875
1510192048.659789,62.98828125,32.71484375,16.6015625,383.30078125,20.01953125
1510192048.6636953,-28.3203125,32.2265625,17.08984375,99.609375,-3.41796875
1510192048.6676016,-110.3515625,33.203125,16.11328125,-299.8046875,-31.25
1510192048.6715078,-31.73828125,35.15625,10.25390625,-85.44921875,-6.8359375
1510192048.675414,54.6875,37.59765625,3.41796875,332.51953125,0.0
1510192048.6793203,-3.41796875,32.2265625,4.8828125,226.5625,-3.90625
1510192048.6832266,-114.2578125,31.73828125,8.30078125,-254.39453125,-20.99609375
1510192048.6871328,-67.3828125,30.76171875,3.90625,-208.0078125,-25.390625
1510192048.691039,35.64453125,30.2734375,2.44140625,239.2578125,-10.25390625
1510192048.6949453,28.80859375,32.2265625,8.30078125,329.1015625,-34.66796875
1510192048.6988516,-95.703125,33.69140625,11.23046875,-154.78515625,-48.828125
1510192048.7027578,-97.16796875,39.0625,8.30078125,-269.04296875,-29.296875
1510192048.7043266,8.7890625,37.59765625,5.37109375,116.2109375,-11.23046875
1510192048.7082329,54.6875,34.1796875,4.39453125,367.1875,11.71875
1510192048.7121391,-56.15234375,40.0390625,9.765625,5.859375,2.9296875
1510192048.7160454,-111.328125,41.015625,9.765625,-302.24609375,-37.59765625
1510192048.7199516,-22.94921875,36.1328125,5.37109375,-14.6484375,-6.8359375
1510192048.7238579,48.828125,36.62109375,4.8828125,357.91015625,65.91796875
1510192048.7277641,-40.52734375,35.64453125,7.32421875,117.1875,49.31640625
1510192048.7316704,-130.859375,34.66796875,11.23046875,-288.57421875,8.30078125
1510192048.7355766,-59.08203125,32.71484375,11.23046875,-125.0,5.37109375
1510192048.7394829,39.0625,31.73828125,12.6953125,273.92578125,4.39453125
1510192048.7433891,6.8359375,33.203125,12.6953125,231.93359375,10.7421875
1510192048.7472954,-112.79296875,31.25,13.18359375,-222.65625,-41.9921875
1510192048.749359,-80.078125,29.296875,14.16015625,-227.05078125,-36.62109375
1510192048.7532651,28.3203125,33.69140625,10.25390625,210.44921875,31.73828125
1510192048.7571714,43.9453125,35.64453125,10.25390625,378.90625,46.38671875
1510192048.7610776,-71.2890625,40.0390625,16.11328125,-71.77734375,29.296875
1510192048.764984,-91.796875,42.48046875,18.06640625,-281.25,-15.625
1510192048.7688901,6.8359375,38.57421875,17.578125,82.51953125,-9.27734375
1510192048.7727964,57.6171875,38.0859375,13.18359375,381.8359375,47.36328125
1510192048.7767026,-52.734375,41.9921875,15.13671875,51.26953125,57.6171875
1510192048.780609,-123.53515625,43.9453125,18.06640625,-308.10546875,34.66796875
1510192048.7845151,-37.109375,41.50390625,10.7421875,-74.21875,41.9921875
1510192048.7884214,46.38671875,39.55078125,5.37109375,355.95703125,81.0546875
1510192048.7923276,-29.78515625,41.9921875,8.7890625,179.6875,67.3828125
1510192048.7943912,-128.41796875,43.45703125,8.7890625,-280.2734375,10.25390625
1510192048.7982974,-63.4765625,41.015625,6.34765625,-170.8984375,-23.4375
1510192048.8022037,37.109375,42.48046875,6.8359375,278.80859375,24.90234375
1510192048.80611,12.20703125,43.9453125,7.8125,304.19921875,82.03125
1510192048.8100162,-112.3046875,41.9921875,11.23046875,-190.91796875,12.6953125
1510192048.8139224,-81.0546875,38.57421875,10.7421875,-255.859375,-28.3203125
1510192048.8178287,35.64453125,36.1328125,8.7890625,170.8984375,-1.953125
1510192048.821735,58.10546875,35.64453125,8.30078125,377.44140625,22.4609375
1510192048.8256412,-53.7109375,38.57421875,10.7421875,-53.7109375,7.8125
1510192048.8295474,-77.63671875,37.59765625,8.30078125,-280.76171875,-32.71484375
1510192048.8334537,21.97265625,35.15625,4.39453125,67.3828125,-20.01953125
1510192048.83736,73.2421875,33.203125,4.8828125,387.20703125,31.25
1510192048.8394246,-7.32421875,34.1796875,7.32421875,62.5,16.6015625
1510192048.8433309,-52.734375,35.15625,6.34765625,-297.36328125,-16.6015625
1510192048.847237,-30.76171875,35.64453125,4.8828125,-61.03515625,-41.50390625
1510192048.8511434,41.50390625,35.15625,26.3671875,339.84375,5.859375
1510192048.8550496,1.953125,32.2265625,37.109375,208.49609375,19.53125
1510192048.8589559,-107.421875,30.2734375,26.3671875,-256.34765625,-34.66796875
1510192048.862862,-48.828125,28.3203125,20.99609375,-184.08203125,-11.23046875
1510192048.8667684,54.19921875,31.73828125,16.11328125,238.28125,-17.578125
1510192048.8706746,37.59765625,37.109375,13.671875,291.50390625,-2.44140625
1510192048.8745809,-81.0546875,43.9453125,16.6015625,-141.11328125,21.97265625
1510192048.878487,-75.1953125,44.921875,18.5546875,-238.76953125,-32.71484375
1510192048.8823934,20.99609375,42.48046875,14.16015625,145.01953125,-50.29296875
1510192048.884458,52.24609375,44.43359375,11.71875,383.7890625,-0.48828125
1510192048.8883643,-62.5,48.828125,9.27734375,-9.27734375,10.25390625
1510192048.8922706,-104.4921875,51.26953125,6.34765625,-294.921875,-47.8515625
1510192048.8961768,-14.16015625,49.31640625,4.8828125,9.765625,-41.50390625
1510192048.900083,46.38671875,49.8046875,1.953125,367.1875,-2.9296875
1510192048.9039893,-41.50390625,55.17578125,2.44140625,102.05078125,-14.16015625
1510192048.9078956,-117.67578125,56.640625,7.8125,-295.8984375,-13.18359375
1510192048.9118018,-41.50390625,53.7109375,11.23046875,-132.32421875,-6.8359375
1510192048.915708,45.8984375,50.78125,10.25390625,293.45703125,11.71875
1510192048.9196143,0.0,51.26953125,12.6953125,250.0,25.390625
1510192048.9235206,-111.81640625,53.22265625,17.578125,-233.3984375,-33.69140625
1510192048.9274268,-68.359375,48.828125,13.18359375,-212.40234375,-15.13671875
1510192048.9294865,41.50390625,46.875,8.7890625,228.02734375,25.390625
1510192048.9333928,36.1328125,48.33984375,8.30078125,338.8671875,23.4375
1510192048.937299,-89.84375,49.8046875,7.32421875,-132.32421875,-10.25390625
1510192048.9412053,-98.14453125,47.36328125,6.8359375,-282.71484375,-51.26953125
1510192048.9451115,7.32421875,43.45703125,4.8828125,108.3984375,-21.97265625
1510192048.9490178,51.26953125,43.45703125,4.39453125,367.1875,-11.23046875
1510192048.952924,-60.546875,42.48046875,8.30078125,-15.13671875,-48.828125
1510192048.9568303,-107.91015625,41.015625,6.8359375,-337.40234375,-83.0078125
1510192048.9607365,-17.578125,35.15625,0.9765625,-14.6484375,-24.90234375
1510192048.9646428,60.546875,26.85546875,0.48828125,374.0234375,11.23046875
1510192048.968549,-14.16015625,23.92578125,3.41796875,127.9296875,3.41796875
1510192048.9724553,-103.515625,26.3671875,5.859375,-290.0390625,-64.453125
1510192048.9745188,-32.71484375,25.390625,3.41796875,-134.27734375,-68.84765625
1510192048.978425,62.01171875,21.97265625,1.953125,295.41015625,-8.30078125
1510192048.9823313,24.4140625,24.4140625,6.34765625,253.90625,-22.94921875
1510192048.9862375,-93.26171875,27.83203125,9.27734375,-228.02734375,-64.453125
1510192048.9901438,-56.640625,23.92578125,5.37109375,-231.4453125,-90.33203125
1510192048.99405,50.29296875,19.04296875,5.37109375,204.1015625,-50.78125
1510192048.9979563,60.05859375,21.97265625,11.23046875,337.890625,-24.4140625
1510192049.0018625,-65.91796875,23.4375,7.8125,-123.046875,-64.453125
1510192049.0057688,-84.47265625,18.5546875,1.953125,-281.25,-67.87109375
1510192049.009675,7.32421875,15.13671875,1.953125,90.33203125,-48.828125
1510192049.0135813,56.15234375,19.04296875,4.8828125,379.39453125,-8.30078125
1510192049.0174875,-44.921875,21.484375,10.25390625,49.8046875,1.953125
1510192049.0345616,-109.375,20.99609375,13.671875,-302.734375,-67.87109375
1510192049.038468,-19.04296875,20.01953125,10.7421875,-63.96484375,-81.54296875
1510192049.0423741,62.01171875,20.5078125,6.8359375,339.35546875,5.37109375
1510192049.0462804,-8.30078125,31.25,9.27734375,177.24609375,28.3203125
1510192049.0501866,-106.4453125,35.64453125,12.6953125,-267.08984375,-23.92578125
1510192049.054093,-47.36328125,36.1328125,9.27734375,-175.78125,-45.41015625
1510192049.0579991,44.43359375,29.296875,7.32421875,250.9765625,14.6484375
1510192049.0619054,18.06640625,20.01953125,10.7421875,294.43359375,23.92578125
1510192049.0658116,-104.4921875,22.4609375,13.671875,-170.8984375,-33.203125
1510192049.069718,-85.44921875,24.90234375,13.671875,-248.53515625,-42.96875
1510192049.0736241,21.97265625,23.92578125,8.7890625,165.0390625,-8.30078125
1510192049.0775304,45.8984375,23.4375,5.37109375,382.8125,43.45703125
1510192049.0795956,-69.3359375,28.3203125,6.8359375,-39.55078125,50.78125
1510192049.0835018,-91.796875,33.203125,8.30078125,-301.7578125,-7.32421875
1510192049.087408,7.32421875,29.78515625,8.30078125,41.015625,22.94921875
1510192049.0913143,63.96484375,26.85546875,4.8828125,386.71875,60.546875
1510192049.0952206,-31.73828125,28.80859375,-2.44140625,78.61328125,14.6484375
1510192049.0991268,-108.3984375,25.87890625,-3.90625,-309.5703125,-1.46484375
1510192049.103033,-19.04296875,27.83203125,-5.859375,-88.37890625,43.45703125
1510192049.1069393,75.1953125,37.109375,-9.765625,346.6796875,60.546875
1510192049.1108456,-3.90625,42.96875,0.9765625,219.23828125,14.6484375
1510192049.1147518,-122.0703125,45.8984375,8.30078125,-288.57421875,-41.9921875
1510192049.118658,-58.59375,48.33984375,4.8828125,-197.265625,-20.5078125
1510192049.1225643,46.38671875,44.921875,7.32421875,294.921875,29.296875
1510192049.1246254,35.64453125,41.9921875,14.16015625,340.33203125,9.27734375
1510192049.1285317,-80.56640625,36.62109375,21.97265625,-143.5546875,-8.30078125
1510192049.132438,-66.89453125,34.66796875,24.90234375,-230.95703125,6.8359375
1510192049.1363442,38.57421875,35.64453125,26.85546875,183.59375,20.01953125
1510192049.1402504,70.3125,31.25,29.296875,408.203125,31.25
1510192049.1441567,-38.57421875,26.85546875,31.73828125,-5.37109375,12.6953125
1510192049.148063,-74.70703125,31.73828125,35.64453125,-269.53125,-19.04296875
1510192049.1519692,20.5078125,36.62109375,39.0625,64.94140625,-29.296875
1510192049.1558754,86.9140625,27.83203125,41.015625,411.1328125,-20.01953125
1510192049.1597817,0.0,21.484375,41.9921875,134.765625,-21.97265625
1510192049.163688,-67.87109375,21.97265625,41.50390625,-223.6328125,-35.15625
1510192049.1675942,9.27734375,20.5078125,42.48046875,-20.99609375,-25.87890625
1510192049.169657,95.703125,15.13671875,38.0859375,389.6484375,23.92578125
1510192049.1735632,50.29296875,17.578125,50.78125,304.19921875,7.32421875
1510192049.1774695,-62.5,25.87890625,60.546875,-172.36328125,-9.27734375
1510192049.1813757,-17.578125,27.83203125,49.8046875,-151.3671875,-19.04296875
1510192049.185282,78.61328125,26.85546875,42.48046875,261.23046875,-13.18359375
1510192049.1891882,74.21875,28.3203125,39.55078125,381.8359375,13.671875
1510192049.1930945,-39.55078125,28.3203125,42.96875,-68.359375,23.92578125
1510192049.1970007,-41.015625,27.83203125,45.41015625,-219.23828125,-26.3671875
1510192049.200907,56.640625,28.3203125,44.43359375,131.8359375,-70.80078125
1510192049.2048132,97.65625,32.2265625,36.1328125,402.83203125,-17.08984375
1510192049.2087195,-8.30078125,34.1796875,30.2734375,79.1015625,-23.92578125
1510192049.2126257,-61.03515625,31.25,30.76171875,-241.69921875,-44.921875
1510192049.2146893,21.97265625,31.73828125,25.390625,24.4140625,8.7890625
1510192049.2185955,84.47265625,33.69140625,19.53125,403.80859375,42.48046875
1510192049.2225018,0.0,38.0859375,23.4375,189.94140625,35.15625
1510192049.226408,-87.40234375,39.0625,26.85546875,-239.2578125,-26.85546875
1510192049.2303143,-18.06640625,31.25,27.34375,-95.21484375,-46.875
1510192049.2342205,75.1953125,22.4609375,31.73828125,341.796875,-16.6015625
1510192049.2381268,38.57421875,27.83203125,33.69140625,316.40625,-10.25390625
1510192049.242033,-79.1015625,41.015625,36.1328125,-179.6875,-66.40625
1510192049.2459393,-46.38671875,39.55078125,35.15625,-213.37890625,-112.79296875
1510192049.2498455,62.01171875,36.62109375,29.78515625,243.1640625,-71.2890625
1510192049.2537518,78.125,40.0390625,31.25,433.10546875,16.11328125
1510192049.257658,-38.0859375,41.015625,33.203125,-33.69140625,-12.20703125
1510192049.274732,-63.4765625,38.57421875,30.2734375,-242.67578125,-32.2265625
1510192049.2786384,27.83203125,38.0859375,27.83203125,133.7890625,-2.9296875
1510192049.2825446,85.9375,41.50390625,26.85546875,443.359375,11.71875
1510192049.2864509,-10.7421875,44.921875,30.2734375,98.14453125,51.7578125
1510192049.290357,-73.73046875,44.921875,32.2265625,-269.04296875,6.8359375
1510192049.2942634,4.8828125,40.52734375,31.25,-22.94921875,-25.87890625
1510192049.2981696,78.61328125,39.0625,29.296875,388.671875,48.828125
1510192049.3020759,2.44140625,39.55078125,28.3203125,190.4296875,54.19921875
1510192049.305982,-94.7265625,40.0390625,26.3671875,-263.671875,-25.87890625
1510192049.3098884,-30.76171875,41.015625,24.90234375,-114.74609375,3.41796875
1510192049.3137946,63.96484375,35.64453125,23.4375,310.05859375,58.59375
1510192049.3177009,38.0859375,34.66796875,20.01953125,317.3828125,40.0390625
1510192049.3047533,-78.125,42.48046875,20.99609375,-149.90234375,19.04296875
1510192049.3086596,-49.31640625,48.33984375,23.92578125,-211.9140625,-0.48828125
1510192049.3125658,55.6640625,50.78125,21.484375,184.08203125,12.6953125
1510192049.316472,68.84765625,50.29296875,19.53125,389.6484375,101.07421875
1510192049.3203783,-47.8515625,49.31640625,22.4609375,-20.99609375,71.2890625
1510192049.3242846,-78.125,48.33984375,23.92578125,-271.484375,3.90625
1510192049.3281908,18.06640625,44.43359375,22.94921875,53.22265625,3.90625
1510192049.332097,83.49609375,43.45703125,21.97265625,387.6953125,20.01953125
1510192049.3360033,-22.94921875,48.828125,22.4609375,98.14453125,22.4609375
1510192049.3399096,-113.28125,42.48046875,25.87890625,-280.2734375,1.46484375
1510192049.3438158,-12.6953125,32.2265625,35.15625,-59.5703125,-13.671875
1510192049.347722,94.23828125,43.45703125,24.4140625,346.6796875,20.99609375
1510192049.3492846,11.71875,58.10546875,12.6953125,221.19140625,62.5
1510192049.353191,-112.79296875,60.05859375,16.6015625,-257.8125,23.92578125
1510192049.3570971,-60.05859375,49.31640625,19.53125,-209.9609375,-12.20703125
1510192049.3610034,26.85546875,41.50390625,16.11328125,209.9609375,-4.39453125
1510192049.3649096,1.953125,49.31640625,11.23046875,277.34375,26.3671875
1510192049.368816,-109.375,56.15234375,15.13671875,-203.125,2.44140625
1510192049.3727221,-114.74609375,58.59375,14.6484375,-358.88671875,-26.85546875
1510192049.3766284,-22.4609375,54.6875,15.625,44.43359375,26.85546875
1510192049.3805346,9.27734375,56.640625,11.23046875,328.125,61.5234375
1510192049.384441,-118.1640625,60.546875,12.20703125,-89.84375,30.2734375
1510192049.3883471,-156.25,62.01171875,19.04296875,-392.578125,-15.625
1510192049.3922534,-73.2421875,62.5,11.71875,-90.33203125,-23.92578125
1510192049.409327,-10.25390625,58.59375,4.39453125,273.92578125,35.15625
1510192049.4132333,-97.16796875,62.98828125,1.46484375,15.13671875,44.921875
1510192049.4171395,-185.05859375,65.4296875,0.48828125,-397.94921875,14.6484375
1510192049.4210458,-104.00390625,68.359375,-0.9765625,-217.28515625,-9.765625
1510192049.424952,-15.625,73.2421875,-5.37109375,196.2890625,-4.8828125
1510192049.4288583,-60.05859375,68.359375,0.0,125.0,-30.76171875
1510192049.4327645,-179.6875,65.4296875,4.39453125,-361.328125,-83.49609375
1510192049.4366708,-140.625,61.5234375,2.44140625,-322.265625,-37.109375
1510192049.440577,-22.4609375,62.01171875,3.90625,135.7421875,-1.46484375
1510192049.4444833,-19.04296875,63.4765625,4.39453125,248.53515625,20.01953125
1510192049.4483895,-130.859375,56.15234375,10.25390625,-203.61328125,4.39453125
1510192049.4522958,-138.671875,59.5703125,7.32421875,-358.3984375,-51.26953125
1510192049.4543803,-39.55078125,63.96484375,-2.9296875,23.4375,-29.296875
1510192049.4582865,19.04296875,60.546875,-2.44140625,304.6875,28.3203125
1510192049.4621928,-90.8203125,43.9453125,2.9296875,-63.4765625,3.41796875
1510192049.466099,-146.484375,25.390625,6.8359375,-360.3515625,-55.6640625
1510192049.4700053,-51.7578125,17.08984375,6.34765625,-68.359375,-41.9921875
1510192049.4739115,1.46484375,13.18359375,3.41796875,303.7109375,4.39453125
1510192049.4778178,-104.00390625,11.23046875,0.48828125,90.33203125,3.90625
1510192049.481724,-182.12890625,12.20703125,-1.953125,-324.21875,-39.0625
1510192049.4856303,-95.21484375,9.27734375,0.0,-166.015625,-34.1796875
1510192049.4895365,10.7421875,5.859375,4.39453125,230.46875,-41.015625
1510192049.4934428,-10.25390625,9.765625,12.20703125,211.9140625,-22.94921875
1510192049.497349,-119.140625,12.20703125,20.5078125,-208.984375,-5.859375
1510192049.4993906,-88.8671875,10.25390625,20.99609375,-254.8828125,-46.38671875
1510192049.5032969,21.97265625,6.34765625,19.04296875,160.15625,-2.44140625
1510192049.507203,46.38671875,10.25390625,22.4609375,350.09765625,45.41015625
1510192049.5111094,-69.3359375,14.16015625,25.87890625,-87.40234375,-3.41796875
1510192049.5150156,-85.9375,10.7421875,22.94921875,-297.8515625,-51.26953125
1510192049.5189219,27.83203125,12.6953125,21.97265625,67.3828125,-9.27734375
1510192049.522828,89.84375,18.06640625,19.04296875,384.765625,23.4375
1510192049.5267344,-9.765625,20.01953125,19.04296875,75.68359375,24.4140625
1510192049.5306406,-79.58984375,21.484375,23.92578125,-290.0390625,-27.34375
1510192049.5345469,-2.9296875,22.4609375,18.5546875,-68.359375,-26.85546875
1510192049.538453,72.265625,21.97265625,10.7421875,371.09375,52.734375
1510192049.5423594,-9.765625,21.484375,31.25,208.49609375,48.33984375
1510192049.5444229,-119.140625,23.4375,57.12890625,-257.32421875,12.20703125
1510192049.548329,-58.59375,25.390625,40.52734375,-167.96875,-30.2734375
1510192049.5522354,48.828125,24.4140625,26.3671875,275.87890625,17.08984375
1510192049.5561416,29.296875,22.4609375,35.15625,313.4765625,60.546875
1510192049.5600479,-89.84375,21.484375,35.64453125,-173.828125,-8.30078125
1510192049.563954,-62.01171875,20.99609375,32.71484375,-242.1875,-58.59375
1510192049.5678604,45.41015625,16.11328125,29.78515625,178.22265625,21.484375
1510192049.5717666,65.91796875,14.16015625,26.85546875,390.13671875,55.17578125
1510192049.5756729,-44.43359375,21.97265625,29.296875,-53.22265625,-1.953125
1510192049.579579,-75.1953125,25.390625,31.73828125,-290.52734375,20.5078125
1510192049.5834854,14.6484375,23.92578125,29.296875,85.9375,52.24609375
1510192049.5873916,72.265625,24.4140625,22.94921875,394.04296875,76.171875
1510192049.5894582,-25.390625,26.85546875,21.484375,88.37890625,91.796875
1510192049.5933645,-97.16796875,29.296875,22.94921875,-267.08984375,52.24609375
1510192049.5972707,-13.671875,29.78515625,19.04296875,-50.29296875,3.90625
1510192049.601177,70.80078125,25.390625,16.11328125,342.7734375,-6.8359375
1510192049.6050832,5.859375,24.4140625,19.53125,218.26171875,24.90234375
1510192049.6089895,-102.5390625,25.87890625,20.5078125,-234.375,37.109375
1510192049.6128957,-40.52734375,28.3203125,14.6484375,-181.15234375,2.9296875
1510192049.616802,62.98828125,29.78515625,12.6953125,231.93359375,-19.04296875
1510192049.6207082,46.38671875,30.76171875,12.6953125,296.38671875,-10.7421875
1510192049.6246145,-67.87109375,31.73828125,14.6484375,-133.30078125,3.41796875
1510192049.6285207,-50.78125,32.71484375,20.01953125,-239.2578125,-39.55078125
1510192049.632427,46.38671875,32.71484375,18.06640625,145.99609375,-2.44140625
1510192049.6344872,76.66015625,28.3203125,15.13671875,400.87890625,64.94140625
1510192049.6383934,-31.73828125,27.34375,17.578125,15.625,33.69140625
1510192049.6422997,-81.0546875,30.2734375,18.5546875,-283.69140625,-26.3671875
1510192049.646206,2.44140625,28.80859375,13.671875,5.37109375,-37.109375
1510192049.6501122,68.84765625,28.80859375,9.765625,378.41796875,46.875
1510192049.6540184,-19.04296875,34.1796875,13.671875,125.9765625,22.94921875
1510192049.6579247,-110.83984375,35.64453125,13.18359375,-287.59765625,-20.01953125
1510192049.661831,-32.71484375,39.0625,8.30078125,-136.23046875,-26.85546875
1510192049.6657372,63.96484375,41.9921875,5.37109375,299.8046875,-17.578125
1510192049.6696434,5.37109375,36.1328125,13.671875,285.64453125,53.22265625
1510192049.6735497,-121.09375,29.296875,18.5546875,-207.03125,-15.13671875
1510192049.677456,-69.3359375,27.83203125,15.625,-208.49609375,-22.94921875
1510192049.6792986,51.26953125,29.296875,14.6484375,229.00390625,25.390625
1510192049.683205,55.17578125,31.25,14.16015625,354.00390625,23.4375
1510192049.6871111,-58.10546875,32.2265625,18.06640625,-101.5625,-9.27734375
1510192049.6910174,-65.4296875,29.78515625,20.99609375,-267.578125,-37.59765625
1510192049.6949236,29.78515625,28.80859375,19.04296875,122.0703125,11.71875
1510192049.69883,77.1484375,30.2734375,15.13671875,396.484375,34.66796875
1510192049.7027361,-28.80859375,34.1796875,18.5546875,14.16015625,-14.6484375
1510192049.7066424,-93.26171875,36.62109375,20.99609375,-322.265625,-71.77734375
1510192049.7105486,-9.27734375,31.25,19.04296875,-13.18359375,-18.06640625
1510192049.714455,66.89453125,28.80859375,18.06640625,387.6953125,47.8515625
1510192049.7183611,-18.5546875,36.62109375,19.04296875,149.90234375,54.19921875
1510192049.7222674,-112.3046875,34.1796875,20.99609375,-274.90234375,57.12890625
1510192049.7243097,-39.0625,26.85546875,19.53125,-125.9765625,43.9453125
1510192049.728216,57.6171875,23.92578125,17.578125,301.26953125,63.96484375
1510192049.7321222,25.87890625,20.5078125,15.13671875,261.23046875,50.29296875
1510192049.7360284,-83.49609375,23.4375,17.08984375,-210.44921875,-14.16015625
1510192049.7399347,-50.78125,32.71484375,16.6015625,-216.30859375,-34.1796875
1510192049.743841,48.33984375,37.59765625,13.18359375,199.70703125,18.06640625
1510192049.7477472,52.24609375,34.1796875,14.6484375,335.9375,43.9453125
1510192049.7516534,-68.84765625,36.62109375,19.04296875,-110.83984375,28.3203125
1510192049.7555597,-74.70703125,37.109375,20.99609375,-271.97265625,0.0
1510192049.759466,32.2265625,33.69140625,17.578125,90.33203125,-28.3203125
1510192049.7633722,89.35546875,37.109375,14.16015625,394.53125,20.01953125
1510192049.7672784,-5.859375,39.55078125,15.625,76.171875,25.87890625
1510192049.7843523,-71.77734375,33.203125,16.6015625,-269.53125,3.41796875
1510192049.7882586,6.34765625,29.296875,15.625,-29.78515625,16.6015625
1510192049.7921648,81.54296875,34.66796875,13.18359375,359.375,44.921875
1510192049.796071,7.8125,40.0390625,16.6015625,203.125,50.29296875
1510192049.7999773,-99.12109375,39.55078125,17.08984375,-238.28125,-5.37109375
1510192049.8038836,-42.48046875,39.55078125,15.13671875,-145.5078125,-21.484375
1510192049.8077898,53.7109375,40.0390625,14.16015625,256.8359375,-27.83203125
1510192049.811696,30.76171875,38.57421875,12.20703125,297.8515625,13.18359375
1510192049.8156023,-89.35546875,37.59765625,15.625,-144.04296875,8.7890625
1510192049.8195086,-72.265625,33.69140625,22.94921875,-233.3984375,-39.55078125
1510192049.8234148,29.296875,34.1796875,23.92578125,163.57421875,18.06640625
1510192049.827321,54.6875,38.0859375,22.94921875,379.8828125,68.84765625
1510192049.829405,-53.22265625,39.55078125,29.78515625,-23.92578125,36.62109375
1510192049.8333113,-85.44921875,38.57421875,27.83203125,-279.78515625,-12.6953125
1510192049.8372176,11.23046875,41.015625,20.5078125,52.734375,6.34765625
1510192049.8411238,79.58984375,41.50390625,17.08984375,403.80859375,55.17578125
1510192049.84503,-12.20703125,38.0859375,14.16015625,96.19140625,-7.32421875
1510192049.8489363,-89.35546875,36.1328125,15.625,-288.57421875,-64.94140625
1510192049.8528426,-24.4140625,34.1796875,16.6015625,-82.51953125,-32.71484375
1510192049.8567488,59.08203125,33.203125,16.11328125,347.65625,5.37109375
1510192049.860655,7.8125,36.1328125,18.06640625,241.69921875,43.45703125
1510192049.8645613,-99.609375,39.0625,18.5546875,-260.7421875,-5.859375
1510192049.8684676,-44.921875,41.015625,15.13671875,-198.73046875,-36.62109375
1510192049.8723738,50.29296875,39.55078125,11.71875,265.625,14.6484375
1510192049.889931,34.66796875,33.203125,9.765625,336.42578125,16.6015625
1510192049.8938372,-83.49609375,31.25,10.7421875,-155.2734375,-30.76171875
1510192049.8977435,-77.1484375,36.1328125,13.18359375,-272.94921875,-74.70703125
1510192049.9016497,19.04296875,41.9921875,8.30078125,145.99609375,-20.99609375
1510192049.905556,48.33984375,41.50390625,6.34765625,374.0234375,-0.9765625
1510192049.9094622,-56.640625,41.015625,13.671875,-34.66796875,-32.2265625
1510192049.9133685,-101.5625,43.45703125,13.671875,-306.15234375,-35.64453125
1510192049.9172747,-8.30078125,42.96875,6.34765625,1.46484375,-40.0390625
1510192049.921181,63.96484375,41.50390625,2.9296875,356.4453125,0.9765625
1510192049.9250872,-26.3671875,40.0390625,7.32421875,85.44921875,-4.8828125
1510192049.9289935,-105.95703125,41.50390625,9.765625,-288.57421875,-17.578125
1510192049.9328997,-39.0625,45.8984375,6.34765625,-104.98046875,14.6484375
1510192049.9194508,43.9453125,44.921875,2.9296875,295.8984375,39.55078125
1510192049.923357,5.859375,45.8984375,5.859375,234.86328125,39.0625
1510192049.9272633,-105.95703125,47.36328125,6.34765625,-232.91015625,19.53125
1510192049.9311695,-69.3359375,43.45703125,6.8359375,-214.84375,2.44140625
