timestamp,TP9,AF7,AF8,TP10,Right AUX
1510188664.1650147,197.75390625,42.96875,-1.46484375,539.0625,79.1015625
1510188664.168921,-17.578125,44.43359375,-2.44140625,-275.87890625,79.1015625
1510188664.1728272,-31.25,41.50390625,-3.41796875,-515.625,62.98828125
1510188664.1767335,138.671875,55.17578125,-14.6484375,99.609375,81.0546875
1510188664.1806397,200.68359375,64.94140625,-18.06640625,501.46484375,99.609375
1510188664.184546,-55.6640625,57.6171875,-2.9296875,-115.234375,77.63671875
1510188664.1884522,-166.9921875,70.3125,0.48828125,-579.58984375,62.01171875
1510188664.1923585,24.4140625,84.47265625,-22.4609375,-125.0,93.75
1510188664.1962647,187.98828125,81.54296875,-24.90234375,477.5390625,151.85546875
1510188664.200171,39.0625,82.03125,-18.5546875,20.99609375,145.5078125
1510188664.2040772,-117.1875,88.37890625,-28.80859375,-604.98046875,97.65625
1510188664.2079835,19.53125,97.16796875,-47.8515625,-238.76953125,119.140625
1510188664.2100322,195.80078125,94.7265625,-49.31640625,437.01171875,149.4140625
1510188664.2139385,92.7734375,78.61328125,-20.99609375,301.7578125,123.53515625
1510188664.2178447,-166.50390625,76.171875,-7.32421875,-534.66796875,63.4765625
1510188664.221751,-127.9296875,83.984375,-17.578125,-628.90625,42.48046875
1510188664.2256572,81.54296875,82.51953125,-20.5078125,-26.3671875,67.87109375
1510188664.2295635,80.56640625,88.37890625,-16.11328125,169.921875,82.51953125
1510188664.2334697,-178.22265625,76.66015625,-12.20703125,-473.14453125,32.2265625
1510188664.237376,-220.703125,68.84765625,-29.78515625,-560.05859375,17.08984375
1510188664.2412822,-44.921875,63.96484375,-36.62109375,118.65234375,53.22265625
1510188664.2451885,51.7578125,46.38671875,-25.390625,455.56640625,68.84765625
1510188664.2490947,-185.05859375,34.66796875,-24.4140625,-275.390625,46.38671875
1510188664.253001,-310.05859375,66.89453125,-23.92578125,-808.10546875,-15.13671875
1510188664.2700691,-139.16015625,66.89453125,-20.5078125,-283.69140625,10.25390625
1510188664.2739754,-16.6015625,45.41015625,-21.97265625,301.7578125,46.875
1510188664.2778816,-199.70703125,69.3359375,-22.4609375,30.76171875,67.3828125
1510188664.2817879,-376.46484375,63.96484375,-16.6015625,-509.27734375,38.0859375
1510188664.2856941,-238.76953125,47.8515625,-12.6953125,-302.24609375,12.20703125
1510188664.2896004,-27.34375,41.50390625,-15.625,311.03515625,26.85546875
1510188664.2935066,-87.40234375,42.96875,-15.625,317.3828125,42.96875
1510188664.2974129,-304.19921875,39.0625,-6.34765625,-269.04296875,86.9140625
1510188664.3013191,-225.09765625,33.69140625,-4.39453125,-105.46875,96.19140625
1510188664.3052254,0.9765625,27.83203125,-1.46484375,526.3671875,49.31640625
1510188664.3091316,26.3671875,32.2265625,-1.46484375,572.75390625,55.6640625
1510188664.3130379,-204.1015625,35.15625,1.46484375,-80.56640625,73.2421875
1510188664.3301315,-225.5859375,36.62109375,1.953125,-281.25,24.90234375
1510188664.3340378,-20.5078125,39.0625,2.44140625,223.14453125,37.59765625
1510188664.337944,61.5234375,38.0859375,7.32421875,630.859375,83.0078125
1510188664.3418503,-150.87890625,34.66796875,11.23046875,102.5390625,84.9609375
1510188664.3457565,-246.09375,30.76171875,11.23046875,-295.8984375,46.875
1510188664.3496628,-90.33203125,25.87890625,6.8359375,87.890625,10.25390625
1510188664.353569,84.47265625,2.44140625,8.7890625,552.24609375,42.48046875
1510188664.3574753,-60.546875,8.30078125,13.18359375,328.61328125,44.921875
1510188664.3613815,-287.59765625,34.66796875,13.671875,-280.76171875,10.25390625
1510188664.3652878,-159.1796875,29.296875,10.25390625,-179.19921875,4.8828125
1510188664.369194,70.80078125,22.94921875,6.34765625,465.33203125,15.13671875
1510188664.3731003,14.16015625,27.34375,19.04296875,496.58203125,25.87890625
1510188664.3601525,-249.51171875,31.73828125,21.97265625,-257.8125,16.11328125
1510188664.3640587,-232.421875,28.80859375,10.7421875,-326.171875,11.71875
1510188664.367965,-21.97265625,20.5078125,14.16015625,284.1796875,39.55078125
1510188664.3718712,15.625,26.85546875,22.94921875,526.3671875,34.1796875
1510188664.3757775,-257.32421875,40.52734375,26.3671875,-83.0078125,7.8125
1510188664.3796837,-329.1015625,40.0390625,27.83203125,-391.11328125,-10.7421875
1510188664.38359,-110.3515625,44.921875,26.3671875,138.671875,42.96875
1510188664.3874962,18.5546875,40.52734375,24.4140625,647.4609375,98.6328125
1510188664.3914025,-198.73046875,34.1796875,26.85546875,167.48046875,69.3359375
1510188664.3953087,-340.33203125,35.64453125,26.3671875,-415.52734375,46.875
1510188664.399215,-147.94921875,28.3203125,18.06640625,-95.21484375,50.29296875
1510188664.4031212,65.4296875,20.99609375,17.08984375,391.11328125,65.91796875
1510188664.4051845,-67.3828125,23.92578125,18.5546875,128.41796875,8.30078125
1510188664.4090908,-295.8984375,14.6484375,20.01953125,-546.38671875,-8.30078125
1510188664.412997,-224.12109375,7.8125,17.08984375,-398.92578125,56.640625
1510188664.4169033,-17.08984375,18.06640625,14.6484375,186.03515625,34.1796875
1510188664.4208095,-29.296875,32.2265625,24.4140625,244.140625,-11.23046875
1510188664.4247158,-270.99609375,21.97265625,26.85546875,-289.0625,-40.0390625
1510188664.428622,-246.09375,12.20703125,18.06640625,-379.8828125,-44.921875
1510188664.4325283,-18.5546875,20.5078125,14.6484375,221.6796875,11.71875
1510188664.4364345,64.94140625,19.04296875,17.08984375,542.96875,-1.953125
1510188664.4403408,-168.9453125,12.20703125,20.5078125,-15.625,11.71875
1510188664.444247,-194.82421875,6.34765625,24.4140625,-331.0546875,-1.46484375
1510188664.4481533,35.15625,13.18359375,25.87890625,118.1640625,1.953125
1510188664.450219,187.5,22.4609375,25.390625,520.5078125,45.8984375
1510188664.4541252,18.06640625,17.08984375,24.4140625,143.5546875,41.50390625
1510188664.4580314,-200.68359375,1.953125,32.2265625,-366.2109375,33.203125
1510188664.4619377,-63.96484375,0.48828125,18.5546875,-140.13671875,44.921875
1510188664.465844,160.15625,14.6484375,3.41796875,443.359375,71.77734375
1510188664.4697502,61.5234375,16.11328125,33.203125,280.2734375,31.25
1510188664.4736564,-220.703125,7.32421875,43.45703125,-386.71875,8.30078125
1510188664.4775627,-218.26171875,-4.8828125,39.0625,-354.00390625,-15.13671875
1510188664.481469,-62.98828125,-10.25390625,31.25,172.36328125,-28.80859375
1510188664.4853752,-103.515625,-7.8125,11.71875,350.09765625,19.04296875
1510188664.4892814,-359.86328125,-7.8125,23.4375,-105.95703125,-33.69140625
1510188664.4931877,-373.53515625,-19.04296875,36.1328125,-139.16015625,-62.5
1510188664.495251,-159.66796875,-19.04296875,28.80859375,349.609375,-56.640625
1510188664.4991572,-44.43359375,-16.11328125,28.80859375,597.65625,-35.15625
1510188664.5030634,-256.34765625,-28.80859375,24.90234375,58.10546875,-18.5546875
1510188664.5069697,-381.8359375,-31.25,26.85546875,-292.48046875,-20.5078125
1510188664.510876,-195.80078125,-40.0390625,28.3203125,168.9453125,14.6484375
1510188664.5147822,-40.0390625,-34.66796875,26.3671875,718.26171875,0.48828125
1510188664.5186884,-229.98046875,-41.015625,30.76171875,422.36328125,5.37109375
1510188664.5225947,-372.55859375,-51.7578125,36.62109375,-131.8359375,-27.34375
1510188664.526501,-151.3671875,-35.15625,45.8984375,79.1015625,-9.765625
1510188664.5304072,67.3828125,-36.1328125,40.52734375,664.0625,47.36328125
1510188664.5343134,-34.66796875,-47.36328125,28.80859375,567.87109375,-30.2734375
1510188664.5382197,-267.08984375,-29.78515625,40.52734375,27.34375,-54.6875
1510188664.5402803,-157.2265625,-17.08984375,36.1328125,58.10546875,-4.8828125
1510188664.5441866,98.14453125,-23.4375,23.92578125,607.421875,-3.90625
1510188664.5480928,157.71484375,-26.85546875,31.73828125,878.90625,-7.8125
1510188664.551999,-66.89453125,-42.96875,31.25,248.046875,-4.8828125
1510188664.5559053,-106.93359375,-55.6640625,26.3671875,45.8984375,26.85546875
1510188664.5598116,138.18359375,-46.38671875,31.25,661.62109375,-10.25390625
1510188664.5637178,258.7890625,-26.3671875,26.3671875,980.46875,-158.69140625
1510188664.567624,60.05859375,-14.16015625,32.71484375,513.671875,-45.41015625
1510188664.5715303,-58.10546875,-8.7890625,44.43359375,245.1171875,65.4296875
1510188664.5754366,129.39453125,-19.53125,32.2265625,495.1171875,48.828125
1510188664.5793428,338.37890625,-24.90234375,26.3671875,825.68359375,84.47265625
1510188664.583249,180.17578125,-4.39453125,28.3203125,619.62890625,146.97265625
1510188664.5853126,-77.1484375,0.48828125,33.203125,225.09765625,128.41796875
1510188664.5892189,38.57421875,-11.23046875,34.66796875,551.7578125,139.16015625
1510188664.593125,301.26953125,-2.44140625,35.64453125,-994.140625,-91.796875
1510188664.5970314,238.28125,12.20703125,37.109375,929.19921875,-242.67578125
1510188664.6009376,-39.55078125,26.3671875,36.1328125,530.2734375,83.0078125
1510188664.6048439,-7.8125,43.45703125,37.109375,425.29296875,207.51953125
1510188664.60875,212.40234375,52.734375,32.71484375,728.515625,180.6640625
1510188664.6126564,268.5546875,56.640625,47.8515625,875.48828125,184.5703125
1510188664.6165626,29.78515625,50.78125,49.31640625,417.96875,176.7578125
1510188664.6204689,-41.9921875,46.38671875,27.34375,145.01953125,190.91796875
1510188664.624375,173.828125,54.19921875,30.2734375,527.83203125,218.26171875
1510188664.6282814,297.36328125,56.15234375,32.71484375,841.796875,209.9609375
1510188664.645355,54.19921875,73.2421875,36.1328125,406.73828125,198.2421875
1510188664.6492612,-121.58203125,84.9609375,38.0859375,-15.13671875,179.19921875
1510188664.6531675,15.625,62.01171875,31.73828125,189.453125,167.48046875
1510188664.6570737,197.265625,46.38671875,29.78515625,609.375,164.0625
1510188664.66098,46.38671875,29.296875,32.71484375,357.421875,161.1328125
1510188664.6648862,-219.23828125,22.4609375,37.59765625,-317.87109375,137.20703125
1510188664.6687925,-107.421875,41.50390625,41.015625,-224.609375,132.8125
1510188664.6726987,115.234375,46.38671875,36.1328125,345.21484375,149.90234375
1510188664.676605,80.56640625,51.26953125,35.64453125,327.1484375,162.109375
1510188664.6805112,-163.57421875,62.5,40.52734375,-365.72265625,138.18359375
1510188664.6844175,-166.50390625,50.29296875,34.1796875,-460.44921875,90.8203125
1510188664.6883237,71.77734375,51.7578125,36.1328125,68.84765625,111.328125
1510188664.6903872,160.64453125,51.7578125,36.1328125,311.03515625,176.7578125
1510188664.6942935,-122.0703125,47.36328125,32.2265625,-268.5546875,178.22265625
1510188664.6981997,-242.1875,41.9921875,31.73828125,-645.99609375,142.08984375
1510188664.702106,-50.29296875,42.96875,28.3203125,-217.7734375,180.17578125
1510188664.7060122,92.28515625,47.36328125,29.296875,228.515625,177.24609375
1510188664.7099185,-124.51171875,53.22265625,34.1796875,-157.2265625,136.71875
1510188664.7138247,-302.24609375,71.2890625,38.0859375,-661.1328125,101.5625
1510188664.717731,-179.19921875,74.70703125,30.2734375,-391.6015625,93.75
1510188664.7216372,6.8359375,76.171875,33.69140625,110.83984375,94.7265625
1510188664.7255435,-83.0078125,74.70703125,38.0859375,-131.8359375,90.33203125
1510188664.7294497,-319.82421875,67.87109375,28.3203125,-717.28515625,59.5703125
1510188664.733356,-235.83984375,72.265625,28.80859375,-595.21484375,29.78515625
1510188664.734918,-2.44140625,63.4765625,35.15625,-83.49609375,53.22265625
1510188664.7388244,-36.1328125,44.43359375,27.83203125,-54.6875,97.16796875
1510188664.7427306,-326.171875,48.33984375,23.92578125,-707.51953125,70.80078125
1510188664.7466369,-348.14453125,52.734375,27.83203125,-838.8671875,-13.671875
1510188664.750543,-150.87890625,46.38671875,25.390625,-325.1953125,17.578125
1510188664.7544494,-67.3828125,50.78125,21.97265625,-17.578125,82.03125
1510188664.7583556,-304.6875,57.6171875,21.97265625,-522.4609375,44.43359375
1510188664.7622619,-403.80859375,66.89453125,28.80859375,-845.21484375,-32.2265625
1510188664.766168,-227.5390625,60.546875,30.76171875,-453.61328125,-17.578125
1510188664.7700744,-236.328125,52.24609375,27.83203125,-56.15234375,27.34375
1510188664.7739806,-511.71875,58.10546875,28.80859375,-313.4765625,51.7578125
1510188664.7778869,-666.9921875,56.15234375,31.25,-818.359375,-33.69140625
1510188664.7801356,-480.95703125,56.640625,28.80859375,-643.5546875,-52.734375
1510188664.784042,-224.12109375,46.38671875,25.87890625,-46.875,31.73828125
1510188664.7879481,-323.2421875,34.66796875,29.296875,-114.74609375,40.0390625
1510188664.7918544,-540.52734375,60.546875,40.52734375,-721.6796875,-51.7578125
1510188664.7957606,-426.7578125,78.125,33.69140625,-672.8515625,-95.703125
1510188664.799667,-186.5234375,70.80078125,22.94921875,-169.921875,-36.62109375
1510188664.8035731,-107.91015625,70.3125,27.83203125,13.671875,20.01953125
1510188664.8074794,-343.26171875,61.5234375,32.71484375,-568.359375,-50.29296875
1510188664.8113856,-376.46484375,65.91796875,29.78515625,-811.5234375,-123.53515625
1510188664.815292,-156.73828125,69.82421875,19.04296875,-299.31640625,-60.05859375
1510188664.8191981,-42.96875,69.3359375,19.04296875,156.25,-43.9453125
1510188664.8231044,-258.30078125,66.89453125,22.94921875,-279.296875,-73.73046875
1510188664.825167,-378.90625,47.8515625,21.484375,-724.609375,-113.76953125
1510188664.8290732,-187.5,47.36328125,21.484375,-347.16796875,-145.01953125
1510188664.8329794,8.7890625,46.875,18.06640625,148.4375,-102.05078125
1510188664.8368857,-142.578125,45.8984375,20.99609375,-148.92578125,-63.96484375
1510188664.840792,-340.33203125,54.19921875,23.4375,-691.89453125,-121.09375
1510188664.8446982,-193.359375,54.19921875,22.4609375,-488.76953125,-149.90234375
1510188664.8486044,-2.9296875,62.01171875,20.5078125,102.05078125,-105.95703125
1510188664.8525107,-65.91796875,64.94140625,21.97265625,95.703125,-113.76953125
1510188664.856417,-298.33984375,59.5703125,23.4375,-558.59375,-158.69140625
1510188664.8603232,-249.0234375,49.8046875,17.578125,-554.6875,-120.60546875
1510188664.8642294,5.37109375,51.26953125,18.06640625,-15.625,-103.02734375
1510188664.8681357,63.96484375,48.33984375,25.390625,185.546875,-97.65625
1510188664.8701987,-178.22265625,33.69140625,25.390625,-346.19140625,-91.30859375
1510188664.874105,-219.23828125,26.85546875,20.99609375,-548.33984375,-99.12109375
1510188664.8780112,8.7890625,24.4140625,19.04296875,-50.78125,-78.61328125
1510188664.8819175,157.2265625,22.94921875,20.01953125,337.890625,-60.546875
1510188664.8858237,-48.33984375,16.6015625,27.83203125,-67.87109375,-41.9921875
1510188664.88973,-210.9375,22.94921875,30.76171875,-537.109375,-41.50390625
1510188664.8936362,-39.0625,29.78515625,22.94921875,-242.67578125,-51.7578125
1510188664.8975425,156.25,28.80859375,21.484375,222.65625,-59.08203125
1510188664.9014487,42.48046875,22.94921875,25.390625,11.23046875,-49.31640625
1510188664.905355,-162.59765625,14.6484375,27.34375,-459.47265625,-57.6171875
1510188664.9092612,-56.640625,23.4375,21.97265625,-330.56640625,-83.49609375
1510188664.9131675,183.59375,22.4609375,19.53125,193.84765625,-68.84765625
1510188664.9152334,153.3203125,14.6484375,24.4140625,231.4453125,-62.5
1510188664.9191396,-122.55859375,10.25390625,26.3671875,-400.390625,-56.640625
1510188664.9230459,-99.609375,18.06640625,20.99609375,-493.1640625,-61.5234375
1510188664.9269521,143.06640625,32.2265625,19.04296875,55.6640625,-23.4375
1510188664.9308584,222.65625,30.76171875,22.94921875,329.1015625,0.48828125
1510188664.9347646,-25.87890625,27.83203125,27.34375,-205.56640625,-40.0390625
1510188664.9386709,-97.65625,31.73828125,27.34375,-542.48046875,-100.5859375
1510188664.9425771,105.46875,23.4375,20.5078125,-136.71875,-96.19140625
1510188664.9464834,228.02734375,12.20703125,14.16015625,361.328125,-42.48046875
1510188664.9503896,40.52734375,20.99609375,17.08984375,-4.8828125,-69.82421875
1510188664.9542959,-127.44140625,20.99609375,19.53125,-546.38671875,-86.42578125
1510188664.9582021,20.5078125,12.6953125,16.11328125,-265.625,-61.5234375
1510188664.9602628,236.328125,10.25390625,14.6484375,264.16015625,-43.45703125
1510188664.964169,119.140625,12.6953125,21.484375,95.703125,-25.390625
1510188664.9680753,-123.046875,8.30078125,23.92578125,-487.3046875,-45.41015625
1510188664.9719815,-14.6484375,7.8125,21.97265625,-390.625,-53.7109375
1510188664.9758878,234.375,17.08984375,21.484375,167.48046875,-41.015625
1510188664.979794,221.19140625,20.01953125,20.99609375,247.55859375,-14.16015625
1510188664.9837003,-45.41015625,13.671875,24.4140625,-400.390625,-63.96484375
1510188664.9876065,-59.5703125,17.578125,22.4609375,-500.9765625,-109.375
1510188664.9915128,174.8046875,22.94921875,12.20703125,61.03515625,-77.1484375
1510188664.995419,272.94921875,22.94921875,10.7421875,332.03125,-49.8046875
1510188664.9993253,23.92578125,14.16015625,19.53125,-226.07421875,-51.26953125
1510188665.0032315,-70.80078125,0.9765625,16.11328125,-620.1171875,-89.35546875
1510188665.0203052,116.69921875,12.20703125,9.27734375,-217.7734375,-87.40234375
1510188665.0242114,280.76171875,18.06640625,5.859375,246.58203125,-49.31640625
1510188665.0281177,111.81640625,16.11328125,9.27734375,-56.15234375,-65.4296875
1510188665.032024,-90.33203125,25.390625,13.671875,-497.0703125,-62.98828125
1510188665.0359302,47.8515625,25.390625,17.08984375,-181.15234375,-5.37109375
1510188665.0398364,255.859375,16.6015625,14.16015625,301.26953125,-29.78515625
1510188665.0437427,162.59765625,12.20703125,14.16015625,102.5390625,-74.70703125
1510188665.047649,-88.37890625,10.7421875,21.484375,-481.93359375,-59.5703125
1510188665.0515552,-15.13671875,19.04296875,20.5078125,-399.90234375,-59.08203125
1510188665.0554614,231.4453125,25.87890625,9.765625,160.15625,-73.73046875
1510188665.0593677,227.05078125,29.296875,10.7421875,339.84375,-46.38671875
1510188665.063274,-33.69140625,36.62109375,21.97265625,-189.94140625,-78.61328125
1510188665.0653374,-53.7109375,31.25,20.01953125,-378.41796875,-149.4140625
1510188665.0692437,145.5078125,27.83203125,16.11328125,113.76953125,-106.4453125
1510188665.07315,248.53515625,30.2734375,17.08984375,472.16796875,-72.265625
1510188665.0770562,8.30078125,35.15625,24.4140625,-0.48828125,-82.03125
1510188665.0809624,-127.44140625,39.55078125,20.5078125,-384.27734375,-97.16796875
1510188665.0848687,53.22265625,32.2265625,15.13671875,1.953125,-93.26171875
1510188665.088775,223.6328125,30.2734375,22.94921875,502.9296875,-93.75
1510188665.0926812,54.19921875,18.06640625,19.04296875,223.14453125,-107.421875
1510188665.0965874,-163.0859375,3.90625,23.4375,-295.41015625,-94.7265625
1510188665.1004937,-42.96875,13.671875,24.90234375,-119.62890625,-125.48828125
1510188665.1044,182.6171875,22.4609375,17.578125,453.61328125,-121.58203125
1510188665.1083062,124.51171875,21.484375,20.99609375,479.98046875,-110.83984375
1510188665.11037,-140.625,18.5546875,24.4140625,-145.01953125,-109.375
1510188665.1142762,-100.09765625,17.578125,20.99609375,-159.1796875,-50.78125
1510188665.1181824,120.1171875,25.87890625,16.11328125,396.484375,-15.13671875
1510188665.1220887,159.66796875,32.2265625,19.53125,573.2421875,-31.25
1510188665.125995,-95.21484375,30.76171875,28.80859375,-38.0859375,-42.48046875
1510188665.1299012,-149.90234375,37.109375,28.3203125,-291.50390625,-92.28515625
1510188665.1338074,56.15234375,28.3203125,20.5078125,175.78125,-83.49609375
1510188665.1377137,167.96875,17.578125,21.97265625,556.15234375,-45.41015625
1510188665.14162,-38.57421875,15.13671875,32.2265625,79.58984375,-76.66015625
1510188665.1455262,-193.84765625,4.39453125,25.390625,-405.2734375,-72.265625
1510188665.1494324,-24.90234375,9.765625,20.99609375,-13.671875,-2.9296875
1510188665.1533387,182.6171875,13.671875,21.484375,485.83984375,-5.859375
1510188665.154901,41.50390625,9.27734375,23.92578125,214.35546875,-20.99609375
1510188665.1588073,-187.5,10.25390625,29.78515625,-339.84375,-17.08984375
1510188665.1627135,-70.3125,8.7890625,24.4140625,-175.29296875,-34.66796875
1510188665.1666198,159.1796875,9.765625,25.390625,365.234375,-17.578125
1510188665.170526,106.4453125,13.671875,27.34375,357.91015625,-11.23046875
1510188665.1744323,-155.2734375,19.04296875,25.87890625,-244.140625,-42.48046875
1510188665.1783385,-111.81640625,29.78515625,25.390625,-282.2265625,-61.03515625
1510188665.1822448,128.41796875,24.4140625,22.4609375,258.7890625,-32.71484375
1510188665.186151,197.265625,10.25390625,22.94921875,497.55859375,-17.578125
1510188665.1900573,-43.45703125,8.7890625,23.4375,-49.8046875,-36.62109375
1510188665.1939635,-114.2578125,14.6484375,23.4375,-325.1953125,-42.96875
1510188665.1978698,90.8203125,9.27734375,25.87890625,77.1484375,-64.94140625
1510188665.1999536,234.86328125,-1.953125,22.4609375,449.70703125,-45.41015625
1510188665.2038598,36.62109375,4.39453125,25.87890625,87.890625,-25.390625
1510188665.207766,-141.11328125,7.8125,27.34375,-382.32421875,-62.5
1510188665.2116723,3.41796875,3.90625,20.99609375,-141.6015625,-66.89453125
1510188665.2155786,205.56640625,10.7421875,18.06640625,366.69921875,-60.05859375
1510188665.2194848,94.23828125,6.8359375,20.01953125,204.1015625,-47.36328125
1510188665.223391,-151.3671875,0.0,19.04296875,-356.4453125,-25.390625
1510188665.2272973,-64.453125,0.48828125,19.53125,-265.13671875,-18.5546875
1510188665.2312036,163.0859375,7.32421875,18.06640625,256.34765625,-40.52734375
1510188665.2351098,144.04296875,12.6953125,16.6015625,390.625,-28.80859375
1510188665.239016,-107.91015625,14.6484375,23.4375,-202.1484375,-89.84375
1510188665.2429223,-103.02734375,25.87890625,23.92578125,-343.26171875,-112.79296875
1510188665.2449644,107.421875,27.34375,19.53125,167.48046875,-77.1484375
1510188665.2488706,187.5,33.203125,18.06640625,472.16796875,-80.56640625
1510188665.2527769,-41.015625,35.15625,25.390625,-44.43359375,-106.4453125
1510188665.256683,-140.13671875,25.87890625,21.484375,-414.0625,-97.65625
1510188665.2605894,41.015625,27.83203125,10.25390625,3.41796875,-48.33984375
1510188665.2644956,184.08203125,34.1796875,11.23046875,446.77734375,-67.87109375
1510188665.2684019,2.9296875,24.4140625,18.5546875,92.7734375,-94.7265625
1510188665.272308,-187.01171875,11.71875,22.94921875,-421.875,-130.859375
1510188665.2762144,-45.8984375,8.7890625,20.99609375,-144.53125,-100.09765625
1510188665.2801206,166.9921875,11.23046875,17.08984375,443.84765625,-43.45703125
1510188665.2840269,65.4296875,7.32421875,23.92578125,288.0859375,-83.49609375
1510188665.287933,-183.10546875,12.6953125,28.3203125,-308.59375,-106.93359375
1510188665.2900167,-116.69921875,19.53125,20.99609375,-211.42578125,-121.58203125
1510188665.293923,110.83984375,12.20703125,19.53125,330.078125,-100.5859375
1510188665.2978292,126.953125,16.11328125,21.97265625,417.48046875,-78.61328125
1510188665.3017354,-114.74609375,23.92578125,25.390625,-195.80078125,-95.703125
1510188665.3056417,-130.859375,20.99609375,27.34375,-328.125,-78.125
1510188665.309548,73.73046875,6.34765625,23.4375,183.59375,0.48828125
1510188665.3134542,170.41015625,0.0,19.04296875,474.12109375,-7.32421875
1510188665.3173604,-46.875,7.8125,17.578125,-29.78515625,-41.50390625
1510188665.3212667,-165.0390625,1.953125,16.11328125,-381.34765625,-12.6953125
1510188665.325173,9.765625,-1.46484375,17.578125,-13.18359375,-18.06640625
1510188665.3290792,188.4765625,4.39453125,16.11328125,447.75390625,-21.97265625
1510188665.3329854,15.625,-11.71875,18.06640625,163.57421875,-14.16015625
1510188665.3350508,-202.63671875,-12.20703125,23.4375,-327.1484375,-19.04296875
1510188665.338957,-65.91796875,2.44140625,19.04296875,-125.0,-42.96875
1510188665.3428633,143.5546875,3.90625,15.13671875,392.578125,-22.94921875
1510188665.3467696,68.359375,1.46484375,17.578125,350.09765625,-34.66796875
1510188665.3506758,-173.33984375,2.9296875,18.06640625,-255.859375,-22.4609375
1510188665.354582,-122.55859375,9.27734375,16.11328125,-276.3671875,1.46484375
1510188665.3584883,89.35546875,7.32421875,11.23046875,221.6796875,-29.296875
1510188665.3623946,117.67578125,11.23046875,5.859375,400.390625,-55.17578125
1510188665.3663008,-118.65234375,18.06640625,9.27734375,-102.05078125,-14.16015625
1510188665.370207,-155.2734375,15.625,10.7421875,-340.33203125,-6.34765625
1510188665.3741133,51.7578125,11.71875,8.30078125,107.421875,11.71875
1510188665.3780196,170.41015625,8.30078125,12.20703125,502.44140625,28.3203125
1510188665.3950915,-38.0859375,6.34765625,16.11328125,29.296875,9.765625
1510188665.3989978,-175.29296875,14.6484375,19.53125,-399.90234375,-7.8125
1510188665.402904,5.859375,17.578125,17.578125,-55.17578125,-5.37109375
1510188665.4068103,175.78125,13.18359375,11.71875,460.9375,40.0390625
1510188665.4107165,11.71875,20.01953125,17.08984375,229.98046875,23.4375
1510188665.4146228,-208.49609375,26.85546875,26.3671875,-374.0234375,-54.19921875
1510188665.418529,-95.21484375,26.3671875,21.484375,-250.0,-49.31640625
1510188665.4224353,126.953125,25.390625,15.13671875,342.7734375,8.7890625
1510188665.4263415,89.35546875,36.62109375,22.94921875,368.65234375,14.6484375
1510188665.4302478,-158.203125,48.828125,26.3671875,-252.9296875,-3.41796875
1510188665.434154,-129.8828125,44.921875,20.01953125,-299.31640625,-63.96484375
1510188665.4380603,77.63671875,37.109375,15.625,252.44140625,-15.625
1510188665.440123,131.8359375,40.0390625,19.53125,485.83984375,30.76171875
1510188665.4440293,-115.234375,44.43359375,24.90234375,-127.9296875,6.8359375
1510188665.4479356,-197.75390625,42.48046875,22.94921875,-429.19921875,-38.57421875
1510188665.4518418,5.37109375,43.45703125,13.671875,45.41015625,-59.08203125
1510188665.455748,134.27734375,41.50390625,9.765625,483.3984375,-25.390625
1510188665.4596543,-71.77734375,38.0859375,20.5078125,77.63671875,-57.6171875
1510188665.4635606,-241.69921875,36.62109375,20.01953125,-394.53125,-57.6171875
1510188665.4674668,-84.9609375,43.45703125,15.625,-78.61328125,-32.2265625
1510188665.471373,108.88671875,43.45703125,18.5546875,406.73828125,-69.3359375
1510188665.4752793,-17.578125,39.0625,25.390625,156.73828125,-76.171875
1510188665.4791856,-227.05078125,49.8046875,25.87890625,-362.3046875,-28.80859375
1510188665.4830918,-108.3984375,45.8984375,24.90234375,-145.01953125,-32.71484375
1510188665.4851353,119.140625,35.64453125,24.4140625,407.2265625,-39.55078125
1510188665.4890416,100.5859375,40.52734375,25.87890625,493.1640625,14.6484375
1510188665.4929478,-123.53515625,39.0625,29.296875,-70.3125,25.390625
1510188665.496854,-101.07421875,35.64453125,22.94921875,-144.04296875,32.2265625
1510188665.5007603,87.40234375,42.96875,16.6015625,333.984375,38.57421875
1510188665.5046666,172.36328125,44.921875,19.53125,564.94140625,44.43359375
1510188665.5085728,-43.9453125,43.45703125,25.87890625,111.328125,40.0390625
1510188665.512479,-160.64453125,39.0625,24.90234375,-186.03515625,32.71484375
1510188665.5163853,0.0,35.64453125,24.4140625,169.921875,46.38671875
1510188665.5202916,158.69140625,39.0625,25.390625,600.09765625,16.6015625
1510188665.5241978,12.6953125,33.69140625,28.80859375,320.80078125,9.765625
1510188665.528104,-154.296875,32.71484375,31.25,-125.48828125,17.578125
1510188665.5301676,-31.73828125,45.41015625,31.25,129.39453125,-21.484375
1510188665.5340738,155.76171875,42.96875,24.4140625,636.23046875,-12.6953125
1510188665.53798,75.68359375,32.71484375,25.390625,499.0234375,0.48828125
1510188665.5418863,-171.875,28.80859375,26.85546875,-146.484375,15.13671875
1510188665.5457926,-105.46875,32.71484375,19.53125,-181.15234375,55.6640625
1510188665.5496988,122.55859375,33.203125,15.625,313.4765625,48.828125
1510188665.553605,132.32421875,32.71484375,18.06640625,429.6875,61.03515625
1510188665.5575113,-120.1171875,34.1796875,26.3671875,-150.87890625,64.94140625
1510188665.5614176,-134.27734375,34.66796875,27.34375,-296.38671875,34.1796875
1510188665.5653238,52.24609375,39.55078125,19.04296875,226.5625,39.0625
1510188665.56923,114.74609375,36.1328125,14.6484375,525.390625,68.84765625
1510188665.5731363,-68.84765625,28.3203125,18.5546875,-6.34765625,86.42578125
1510188665.5752068,-118.1640625,29.296875,21.97265625,-388.671875,85.44921875
1510188665.579113,73.73046875,21.484375,13.18359375,-33.203125,57.6171875
1510188665.5830193,213.37890625,16.6015625,9.27734375,377.44140625,41.9921875
1510188665.5869255,35.15625,20.99609375,13.671875,7.8125,61.5234375
1510188665.5908318,-164.55078125,15.625,14.16015625,-497.55859375,32.2265625
1510188665.594738,-9.765625,19.53125,19.53125,-249.0234375,-32.2265625
1510188665.5986443,207.03125,29.78515625,20.5078125,286.62109375,-21.484375
1510188665.6025505,68.359375,34.66796875,22.94921875,159.1796875,-6.34765625
1510188665.6064568,-186.03515625,35.15625,26.3671875,-489.74609375,-31.73828125
1510188665.610363,-114.2578125,29.78515625,23.4375,-439.94140625,-16.11328125
1510188665.6142693,116.69921875,29.78515625,19.53125,81.0546875,-20.01953125
1510188665.6181755,186.03515625,28.3203125,17.578125,215.8203125,-18.5546875
1510188665.6202514,-62.98828125,17.08984375,21.97265625,-335.44921875,-27.83203125
1510188665.6241577,-94.23828125,19.53125,22.94921875,-515.625,-98.6328125
1510188665.628064,137.20703125,21.97265625,16.6015625,-41.50390625,-68.359375
1510188665.6319702,250.48828125,18.5546875,17.578125,334.47265625,5.859375
1510188665.6358764,47.36328125,29.296875,23.4375,-83.0078125,-22.94921875
1510188665.6397827,-106.4453125,41.015625,18.06640625,-509.27734375,-46.38671875
1510188665.643689,53.22265625,31.73828125,16.6015625,-176.26953125,-45.41015625
1510188665.6475952,167.96875,17.578125,15.13671875,250.9765625,-92.7734375
1510188665.6515014,-73.2421875,20.5078125,17.578125,-12.20703125,-79.1015625
1510188665.6554077,-256.8359375,24.4140625,19.53125,-501.46484375,-91.30859375
1510188665.659314,-115.234375,19.04296875,17.578125,-331.0546875,-82.51953125
1510188665.6632202,87.40234375,19.53125,17.578125,231.93359375,-64.453125
1510188665.6652634,12.20703125,18.06640625,20.99609375,266.6015625,-53.22265625
1510188665.6691697,-278.80859375,20.99609375,24.90234375,-307.6171875,-56.640625
1510188665.673076,-283.203125,32.2265625,19.04296875,-368.65234375,-74.70703125
1510188665.6769822,-113.28125,40.0390625,16.11328125,149.4140625,-38.57421875
1510188665.6808884,-120.1171875,43.45703125,16.11328125,380.859375,-1.46484375
1510188665.6847947,-343.75,50.78125,20.5078125,-168.9453125,21.97265625
1510188665.688701,-359.86328125,51.7578125,26.85546875,-398.92578125,18.06640625
1510188665.6926072,-189.453125,50.78125,23.4375,94.7265625,26.85546875
1510188665.6965134,-93.26171875,48.828125,16.11328125,571.77734375,91.796875
1510188665.7004197,-327.1484375,46.875,17.08984375,229.98046875,83.49609375
1510188665.704326,-490.72265625,48.828125,18.06640625,-213.8671875,68.359375
1510188665.7082322,-327.63671875,38.57421875,18.5546875,115.72265625,102.05078125
1510188665.7102947,-96.6796875,33.69140625,16.6015625,658.69140625,116.69921875
1510188665.714201,-177.24609375,39.55078125,20.5078125,475.09765625,116.69921875
1510188665.7181072,-375.9765625,40.52734375,24.4140625,-96.6796875,142.578125
1510188665.7220135,-278.80859375,38.57421875,17.578125,-6.34765625,168.9453125
1510188665.7259197,-131.8359375,32.2265625,13.671875,542.96875,171.38671875
1510188665.729826,-162.109375,41.015625,16.6015625,572.75390625,167.96875
1510188665.7337322,-355.95703125,52.734375,14.6484375,-109.375,137.20703125
1510188665.7376385,-289.55078125,54.6875,13.18359375,-208.49609375,111.328125
1510188665.7415447,-36.1328125,55.6640625,16.11328125,301.7578125,142.578125
1510188665.745451,49.31640625,36.62109375,12.6953125,473.14453125,143.5546875
1510188665.7493572,-145.01953125,17.08984375,19.04296875,-109.375,119.140625
1510188665.7532635,-167.96875,16.11328125,24.90234375,-478.02734375,75.68359375
1510188665.7703378,48.33984375,13.671875,20.01953125,-154.296875,68.359375
1510188665.774244,221.6796875,12.6953125,18.5546875,151.85546875,74.70703125
1510188665.7781503,62.5,9.765625,22.4609375,-313.4765625,24.90234375
1510188665.7820566,-79.58984375,13.671875,26.85546875,-850.5859375,-65.4296875
1510188665.7859628,92.7734375,16.6015625,25.87890625,-653.80859375,-115.72265625
1510188665.789869,276.85546875,8.7890625,19.53125,-181.640625,-81.0546875
1510188665.7937753,181.15234375,17.578125,22.94921875,-354.00390625,-53.7109375
1510188665.7976816,-32.71484375,31.25,30.76171875,-947.265625,-447.265625
1510188665.8015878,24.90234375,33.203125,27.83203125,-839.35546875,-594.7265625
1510188665.805494,218.26171875,21.484375,22.94921875,-249.0234375,-229.4921875
1510188665.8094003,178.7109375,18.5546875,20.5078125,-108.88671875,-171.875
1510188665.8133066,-111.328125,22.94921875,25.87890625,-573.73046875,-168.9453125
1510188665.8153694,-203.125,19.53125,27.83203125,-660.64453125,-203.61328125
1510188665.8192756,-64.453125,20.5078125,19.53125,-145.5078125,-174.31640625
1510188665.8231819,12.6953125,23.4375,20.5078125,261.71875,-87.40234375
1510188665.827088,-221.6796875,19.53125,27.83203125,-57.12890625,-87.40234375
1510188665.8309944,-342.28515625,15.13671875,29.296875,-267.08984375,-119.140625
1510188665.8349006,-159.66796875,16.11328125,24.90234375,218.75,-83.49609375
1510188665.8388069,-21.484375,16.6015625,18.5546875,728.02734375,-58.10546875
1510188665.842713,-190.4296875,21.484375,20.5078125,473.14453125,-44.43359375
1510188665.8466194,-353.515625,17.578125,22.4609375,16.11328125,-18.06640625
1510188665.8505256,-203.125,4.39453125,18.5546875,166.9921875,-8.30078125
1510188665.8544319,32.71484375,7.32421875,17.578125,711.9140625,39.55078125
1510188665.858338,-37.59765625,11.23046875,16.11328125,720.21484375,57.12890625
1510188665.8604014,-238.76953125,10.25390625,16.11328125,131.34765625,82.51953125
1510188665.8643076,-137.6953125,12.6953125,16.6015625,241.2109375,172.8515625
1510188665.868214,104.4921875,11.71875,16.11328125,815.91796875,65.4296875
1510188665.8721201,129.8828125,11.23046875,16.11328125,958.0078125,-22.94921875
1510188665.8760264,-94.7265625,7.32421875,18.06640625,455.078125,186.03515625
1510188665.8799326,-332.03125,4.8828125,13.671875,150.87890625,264.6484375
1510188665.883839,-367.1875,5.859375,7.8125,419.43359375,248.046875
1510188665.8877451,-24.90234375,4.39453125,12.20703125,729.98046875,244.62890625
1510188665.8916514,80.078125,5.37109375,18.06640625,237.3046875,215.8203125
1510188665.8955576,0.9765625,10.25390625,18.5546875,-310.546875,184.08203125
1510188665.899464,104.4921875,9.27734375,15.625,-72.265625,198.2421875
1510188665.9033701,345.703125,11.71875,12.6953125,325.1953125,181.640625
1510188665.9049528,340.33203125,24.4140625,16.11328125,6.8359375,138.671875
1510188665.908859,144.53125,27.34375,14.6484375,-541.015625,129.39453125
1510188665.9127653,205.078125,24.90234375,10.7421875,-333.0078125,125.0
1510188665.9166715,433.59375,27.83203125,10.25390625,164.55078125,80.078125
1510188665.9205778,403.80859375,31.73828125,10.7421875,30.2734375,21.97265625
1510188665.924484,120.60546875,37.59765625,18.06640625,-676.26953125,-71.2890625
1510188665.9283903,130.37109375,37.109375,14.6484375,-802.24609375,-101.07421875
1510188665.9322965,366.69921875,37.109375,11.23046875,-332.51953125,-74.70703125
1510188665.9362028,392.578125,36.62109375,15.625,-181.15234375,-76.66015625
1510188665.940109,87.40234375,37.59765625,20.99609375,-713.8671875,-154.296875
1510188665.9440153,6.34765625,50.78125,24.90234375,-853.02734375,-207.51953125
1510188665.9479215,172.8515625,49.31640625,23.4375,-336.42578125,-153.3203125
1510188665.9499671,251.953125,53.7109375,23.4375,90.33203125,-120.1171875
1510188665.9538734,23.92578125,58.10546875,23.92578125,-289.0625,-132.32421875
1510188665.9577796,-154.78515625,49.8046875,25.390625,-685.546875,-164.55078125
1510188665.961686,-3.41796875,41.9921875,25.87890625,-336.42578125,-209.47265625
1510188665.9655921,150.390625,44.43359375,21.484375,259.765625,-178.22265625
1510188665.9694984,-18.06640625,43.9453125,25.390625,209.47265625,-134.27734375
1510188665.9734046,-265.13671875,42.48046875,28.80859375,-303.7109375,-162.59765625
1510188665.977311,-224.609375,43.9453125,26.85546875,-222.65625,-153.3203125
1510188665.9812171,-91.796875,32.2265625,23.92578125,264.6484375,-107.421875
1510188665.9851234,-167.96875,24.90234375,23.4375,368.65234375,-91.30859375
1510188665.9890296,-432.6171875,26.3671875,28.3203125,-73.73046875,-113.28125
1510188665.992936,-415.52734375,20.5078125,26.85546875,-95.21484375,-105.46875
1510188665.9949994,-204.1015625,15.625,20.5078125,336.42578125,-56.640625
1510188665.9989057,-151.85546875,15.625,20.5078125,545.41015625,-17.578125
1510188666.002812,-364.2578125,9.765625,22.4609375,119.140625,-56.15234375
1510188666.0067182,-392.08984375,6.34765625,19.04296875,-111.81640625,-64.94140625
1510188666.0106244,-151.3671875,5.37109375,18.06640625,372.0703125,-2.44140625
1510188666.0145307,32.71484375,5.859375,18.5546875,820.3125,23.4375
1510188666.018437,-94.23828125,11.23046875,23.4375,480.95703125,21.97265625
1510188666.0223432,-203.61328125,13.18359375,24.90234375,55.6640625,47.36328125
1510188666.0262494,-35.15625,13.671875,20.5078125,375.48828125,95.703125
1510188666.0301557,166.50390625,15.13671875,21.97265625,902.34375,62.5
1510188666.034062,59.08203125,21.484375,24.90234375,554.19921875,71.2890625
1510188666.0379682,-219.7265625,15.625,24.4140625,-108.3984375,121.09375
1510188666.0400486,-178.22265625,4.8828125,16.6015625,46.38671875,109.375
1510188666.0439548,69.82421875,13.18359375,11.71875,564.94140625,104.4921875
1510188666.047861,54.6875,16.6015625,25.390625,570.80078125,122.0703125
1510188666.0517673,-259.27734375,3.41796875,41.015625,-133.30078125,133.30078125
1510188666.0556736,-294.921875,-3.41796875,36.1328125,-314.94140625,107.91015625
1510188666.0595798,-82.03125,-1.46484375,30.76171875,179.6875,158.69140625
1510188666.063486,-21.484375,0.48828125,36.62109375,393.06640625,170.41015625
1510188666.0673923,-298.33984375,2.9296875,42.48046875,-197.265625,148.92578125
1510188666.0712986,-439.94140625,2.44140625,49.31640625,-465.33203125,144.53125
1510188666.0752048,-298.33984375,6.8359375,52.24609375,-96.19140625,110.83984375
1510188666.079111,-170.8984375,6.34765625,42.96875,204.1015625,149.90234375
1510188666.0830173,-372.0703125,3.41796875,47.8515625,-130.37109375,157.71484375
1510188666.085061,-612.3046875,8.7890625,60.05859375,-588.8671875,121.58203125
1510188666.0889673,-520.99609375,16.11328125,58.59375,-382.8125,129.39453125
1510188666.0928736,-399.4140625,13.18359375,59.08203125,87.40234375,208.984375
1510188666.0967798,-543.9453125,2.44140625,66.40625,-2.44140625,264.6484375
1510188666.100686,-738.28125,7.32421875,59.08203125,-573.2421875,199.70703125
1510188666.1045923,-645.01953125,2.44140625,62.98828125,-491.2109375,189.94140625
1510188666.1084986,-391.11328125,-3.90625,73.73046875,49.31640625,227.5390625
1510188666.1124048,-388.18359375,4.39453125,78.125,119.140625,289.0625
1510188666.116311,-629.39453125,12.6953125,86.42578125,-513.671875,248.53515625
1510188666.1202173,-618.1640625,3.41796875,84.9609375,-713.37890625,185.05859375
1510188666.1241236,-435.05859375,-11.71875,82.51953125,-263.18359375,284.1796875
1510188666.1280298,-247.55859375,-13.671875,78.125,-3.41796875,372.0703125
1510188666.145103,-331.0546875,-9.27734375,77.63671875,-378.90625,347.65625
1510188666.1490092,-375.9765625,-14.16015625,83.984375,-727.05078125,248.046875
1510188666.1529155,-150.390625,-9.27734375,74.70703125,-524.4140625,207.03125
1510188666.1568217,81.0546875,-16.6015625,79.1015625,-44.43359375,295.41015625
1510188666.160728,0.0,-31.73828125,83.984375,-339.84375,403.3203125
1510188666.1646342,-129.8828125,-24.90234375,76.171875,-1000.0,-141.11328125
1510188666.1685405,39.55078125,-26.3671875,80.078125,-806.15234375,-296.875
1510188666.1724467,291.50390625,-27.83203125,63.96484375,-81.54296875,281.25
1510188666.176353,253.41796875,-32.71484375,62.5,-11.71875,301.7578125
1510188666.1802592,66.40625,-29.78515625,72.265625,-662.59765625,205.56640625
1510188666.1841655,171.38671875,-17.578125,61.5234375,-629.8828125,214.84375
1510188666.1880717,423.828125,-28.3203125,58.10546875,51.7578125,263.18359375
1510188666.1901374,604.4921875,-28.80859375,63.4765625,223.14453125,242.67578125
1510188666.1940436,514.16015625,-11.71875,63.4765625,-347.16796875,228.02734375
1510188666.19795,564.453125,-13.18359375,59.5703125,-484.86328125,177.734375
1510188666.2018561,870.1171875,-5.37109375,45.8984375,63.4765625,129.39453125
1510188666.2057624,-993.65234375,5.37109375,53.7109375,477.5390625,-116.2109375
1510188666.2096686,991.69921875,4.8828125,51.7578125,-44.921875,-230.46875
1510188666.213575,997.0703125,-8.30078125,36.1328125,-587.890625,-243.65234375
1510188666.2174811,-999.51171875,-5.859375,22.4609375,-278.80859375,-354.4921875
1510188666.2213874,999.0234375,0.48828125,8.7890625,246.58203125,-227.05078125
1510188666.2252936,999.51171875,3.90625,20.01953125,-66.40625,-371.09375
1510188666.2292,999.51171875,5.37109375,14.16015625,-626.953125,-469.23828125
1510188666.2331061,999.51171875,-17.578125,12.6953125,-374.0234375,-291.9921875
1510188666.2351675,999.51171875,2.44140625,18.5546875,182.12890625,-235.83984375
1510188666.2390738,999.51171875,21.484375,-2.44140625,72.75390625,-218.75
1510188666.24298,999.51171875,-10.25390625,-10.25390625,-671.875,-279.78515625
1510188666.2468863,999.51171875,-10.25390625,0.9765625,-644.04296875,-327.1484375
1510188666.2507925,999.51171875,-8.7890625,-2.9296875,-135.25390625,-281.73828125
1510188666.2546988,999.51171875,-4.8828125,-17.578125,49.31640625,-198.2421875
1510188666.258605,999.51171875,0.0,-14.16015625,-541.50390625,-215.33203125
1510188666.2625113,999.51171875,-1.46484375,-7.8125,-801.7578125,-260.25390625
1510188666.2664175,999.51171875,-8.7890625,-7.8125,-114.74609375,-207.51953125
1510188666.2703238,999.51171875,-18.5546875,2.44140625,486.328125,-195.80078125
1510188666.27423,999.51171875,-5.859375,-3.41796875,172.8515625,-187.01171875
1510188666.2781363,999.51171875,-2.9296875,7.8125,-280.2734375,-210.9375
1510188666.2801993,999.51171875,-24.4140625,18.06640625,28.80859375,-190.4296875
1510188666.2841055,999.51171875,11.23046875,-10.7421875,633.7890625,-114.2578125
1510188666.2880118,999.51171875,34.66796875,1.46484375,444.3359375,-104.4921875
1510188666.291918,999.51171875,-3.90625,8.30078125,-144.04296875,-111.328125
1510188666.2958243,999.51171875,8.7890625,-17.578125,43.9453125,-105.46875
1510188666.2997305,999.51171875,8.7890625,-4.8828125,687.01171875,-96.6796875
1510188666.3036368,999.51171875,13.671875,-0.48828125,877.9296875,-64.453125
1510188666.307543,-999.0234375,17.08984375,16.11328125,268.5546875,-36.62109375
1510188666.3114493,990.234375,7.32421875,21.484375,154.78515625,18.5546875
1510188666.3153555,-998.046875,11.23046875,-5.37109375,720.21484375,-59.5703125
1510188666.3192618,965.33203125,13.671875,5.37109375,-932.6171875,-132.32421875
1510188666.323168,620.1171875,18.5546875,15.625,618.1640625,302.734375
1510188666.3252316,286.1328125,25.87890625,14.6484375,203.125,569.82421875
1510188666.3291378,209.47265625,27.34375,14.16015625,624.0234375,539.0625
1510188666.333044,122.0703125,26.3671875,17.578125,-971.6796875,469.7265625
1510188666.3369503,-219.23828125,26.85546875,22.94921875,547.8515625,520.5078125
1510188666.3408566,-494.140625,22.4609375,27.34375,11.23046875,571.77734375
1510188666.3447628,-489.2578125,13.18359375,27.34375,298.828125,555.17578125
1510188666.348669,-404.296875,4.39453125,20.5078125,885.25390625,493.1640625
1510188666.3525753,-634.27734375,-2.44140625,21.97265625,696.77734375,370.60546875
1510188666.3564816,-953.125,-11.23046875,25.87890625,-114.2578125,230.95703125
1510188666.3603878,-839.84375,-13.671875,15.13671875,-89.35546875,277.83203125
1510188666.364294,-613.28125,-6.34765625,18.06640625,579.1015625,387.20703125
1510188666.3682003,-622.55859375,-13.18359375,23.4375,695.80078125,347.16796875
1510188666.3702626,-881.8359375,-18.5546875,23.92578125,-62.5,241.69921875
1510188666.3741689,-928.22265625,-8.7890625,20.99609375,-322.75390625,133.7890625
1510188666.3780751,-754.8828125,-12.20703125,20.5078125,238.76953125,202.63671875
1510188666.3819814,-668.9453125,-16.11328125,22.4609375,627.9296875,271.484375
1510188666.3858876,-847.65625,-23.92578125,23.92578125,6.34765625,117.67578125
1510188666.3897939,-941.89453125,-27.83203125,23.4375,-536.62109375,0.0
1510188666.3937001,-779.296875,-22.4609375,21.97265625,-66.40625,104.4921875
1510188666.3976064,-657.2265625,-23.92578125,21.97265625,395.01953125,194.3359375
1510188666.4015126,-800.78125,-24.4140625,28.3203125,98.6328125,176.26953125
1510188666.4054189,-968.75,-27.83203125,29.296875,-338.8671875,-15.13671875
1510188666.4093251,-861.328125,-26.3671875,21.97265625,-109.375,40.0390625
1510188666.4132314,-637.20703125,-17.578125,29.78515625,661.1328125,119.62890625
1510188666.430306,-608.3984375,-17.08984375,33.203125,804.6875,63.96484375
1510188666.4342122,-862.79296875,-22.94921875,24.4140625,144.04296875,0.0
1510188666.4381185,-935.546875,-19.04296875,12.6953125,19.53125,-109.86328125
1510188666.4420247,-769.53125,-7.8125,5.37109375,499.0234375,-44.43359375
1510188666.445931,-812.5,3.90625,6.34765625,604.00390625,-6.8359375
1510188666.4498372,-969.23828125,8.7890625,12.6953125,-282.2265625,-388.671875
1510188666.4537435,-977.5390625,21.484375,19.04296875,-652.83203125,-724.12109375
1510188666.4576497,-919.43359375,22.4609375,17.578125,-3.90625,-410.64453125
1510188666.461556,-844.7265625,15.625,15.625,562.5,20.01953125
1510188666.4654622,-918.45703125,13.18359375,23.4375,30.2734375,-207.03125
1510188666.4693685,-982.421875,4.39453125,24.4140625,-562.01171875,-564.94140625
1510188666.4732747,-867.67578125,15.13671875,19.04296875,-82.03125,-250.48828125
1510188666.4603271,-663.0859375,24.90234375,23.92578125,554.6875,11.23046875
1510188666.4642334,-760.25390625,26.3671875,19.04296875,206.0546875,-95.21484375
1510188666.4681396,-921.38671875,30.76171875,16.6015625,-515.13671875,-179.6875
1510188666.472046,-775.87890625,37.59765625,23.92578125,-346.19140625,-115.72265625
1510188666.4759521,-604.4921875,39.0625,16.6015625,238.76953125,-67.3828125
1510188666.4798584,-613.76953125,38.0859375,20.5078125,186.03515625,-70.3125
1510188666.4837646,-732.421875,41.015625,28.80859375,-500.48828125,-118.1640625
1510188666.487671,-640.625,34.1796875,23.4375,-611.81640625,-145.99609375
1510188666.4915771,-404.296875,29.296875,19.04296875,8.30078125,-86.9140625
1510188666.4954834,-328.61328125,29.296875,23.4375,270.99609375,-98.6328125
1510188666.4993896,-526.3671875,28.80859375,27.83203125,-441.89453125,-165.0390625
1510188666.503296,-548.33984375,37.109375,26.85546875,-726.5625,-216.796875
1510188666.5203738,-308.59375,38.57421875,25.87890625,-151.85546875,-230.95703125
1510188666.52428,-178.22265625,41.9921875,15.625,251.46484375,-168.45703125
1510188666.5281863,-360.83984375,45.41015625,22.4609375,-274.90234375,-169.921875
1510188666.5320926,-490.234375,49.8046875,30.76171875,-810.546875,-308.10546875
1510188666.5359988,-339.35546875,50.78125,18.06640625,-473.6328125,-303.22265625
1510188666.539905,-168.9453125,43.45703125,23.92578125,31.25,-233.88671875
1510188666.5438113,-312.5,40.52734375,25.87890625,-246.09375,-215.8203125
1510188666.5477176,-485.3515625,53.7109375,20.5078125,-890.13671875,-339.35546875
1510188666.5516238,-361.328125,53.22265625,24.90234375,-720.703125,-419.921875
1510188666.55553,-184.08203125,40.52734375,16.6015625,-72.75390625,-305.6640625
1510188666.5594363,-201.171875,41.9921875,14.16015625,-9.27734375,-274.90234375
1510188666.5633426,-430.6640625,44.921875,20.99609375,-691.40625,-362.3046875
1510188666.565404,-417.96875,41.9921875,20.01953125,-845.703125,-437.5
1510188666.5693102,-194.3359375,38.0859375,14.16015625,-239.74609375,-370.1171875
1510188666.5732164,-69.3359375,44.43359375,10.25390625,118.1640625,-305.6640625
1510188666.5771227,-267.578125,49.8046875,12.20703125,-434.5703125,-364.74609375
1510188666.581029,-291.015625,54.19921875,13.18359375,-721.19140625,-437.5
1510188666.5849352,-44.921875,55.6640625,11.71875,-132.8125,-416.015625
1510188666.5888414,115.234375,59.5703125,4.39453125,487.3046875,-351.07421875
1510188666.5927477,-17.08984375,66.40625,6.8359375,167.48046875,-336.42578125
1510188666.596654,-190.91796875,71.77734375,18.5546875,-355.95703125,-359.86328125
1510188666.6005602,-63.96484375,79.58984375,13.18359375,-43.9453125,-368.1640625
1510188666.6044664,153.80859375,79.1015625,7.32421875,587.40234375,-342.7734375
1510188666.6083727,63.4765625,81.0546875,17.08984375,487.79296875,-333.49609375
1510188666.6099334,-162.109375,79.1015625,18.5546875,-168.45703125,-334.47265625
1510188666.6138396,-98.14453125,74.21875,17.578125,-58.59375,-325.68359375
1510188666.6177459,53.22265625,68.84765625,15.625,567.3828125,-315.4296875
1510188666.6216521,-4.8828125,68.359375,18.5546875,689.94140625,-291.9921875
1510188666.6255584,-317.87109375,69.3359375,24.90234375,-4.8828125,-299.31640625
1510188666.6294646,-298.33984375,66.40625,22.4609375,-254.8828125,-315.91796875
1510188666.6333709,-134.27734375,62.5,22.94921875,299.31640625,-285.64453125
1510188666.6372771,-143.06640625,63.96484375,25.87890625,704.1015625,-233.3984375
1510188666.6411834,-341.30859375,61.03515625,22.4609375,148.92578125,-217.7734375
1510188666.6450896,-479.4921875,53.22265625,20.5078125,-270.01953125,-208.984375
1510188666.6489959,-297.8515625,58.10546875,17.578125,211.42578125,-174.31640625
1510188666.6529021,-169.921875,59.5703125,11.71875,707.03125,-158.69140625
1510188666.6549652,-349.12109375,60.05859375,17.08984375,351.5625,-133.7890625
1510188666.6588714,-510.7421875,52.24609375,22.94921875,-134.27734375,-141.6015625
1510188666.6627777,-412.109375,44.921875,20.5078125,217.28515625,-126.46484375
1510188666.666684,-225.09765625,50.78125,16.11328125,830.56640625,-123.53515625
1510188666.6705902,-305.17578125,48.33984375,16.6015625,700.68359375,-107.91015625
1510188666.6744964,-555.17578125,41.015625,20.01953125,-33.203125,-63.4765625
1510188666.6784027,-463.8671875,41.015625,17.578125,-77.63671875,-63.4765625
1510188666.682309,-257.8125,37.109375,15.625,545.8984375,-18.5546875
1510188666.6862152,-275.390625,36.62109375,23.92578125,719.7265625,-20.01953125
1510188666.6901214,-489.74609375,40.52734375,28.3203125,110.3515625,9.765625
1510188666.6940277,-512.6953125,35.64453125,26.3671875,-66.40625,35.15625
1510188666.697934,-330.56640625,24.90234375,23.4375,423.33984375,41.015625
1510188666.6999996,-218.75,23.4375,20.99609375,803.7109375,55.6640625
1510188666.7039058,-400.390625,31.73828125,24.90234375,312.98828125,82.51953125
1510188666.707812,-522.94921875,38.0859375,23.92578125,-175.29296875,82.51953125
1510188666.7117183,-400.390625,34.1796875,22.94921875,147.4609375,75.1953125
1510188666.7156246,-217.7734375,29.296875,25.87890625,666.015625,110.83984375
1510188666.7195308,-333.49609375,27.34375,33.69140625,403.3203125,108.3984375
1510188666.723437,-549.31640625,20.99609375,30.2734375,-209.9609375,110.3515625
1510188666.7273433,-454.58984375,21.97265625,20.99609375,-85.44921875,79.1015625
1510188666.7312496,-246.58203125,28.3203125,21.484375,468.26171875,90.33203125
1510188666.7351558,-284.1796875,28.80859375,19.53125,484.86328125,126.46484375
1510188666.739062,-503.90625,24.4140625,21.97265625,-204.1015625,77.1484375
1510188666.7429683,-443.84765625,23.4375,20.01953125,-303.7109375,71.2890625
1510188666.7450316,-187.5,21.97265625,18.5546875,277.83203125,85.44921875
1510188666.7489378,-91.796875,19.04296875,15.13671875,520.01953125,51.7578125
1510188666.752844,-299.31640625,24.4140625,24.4140625,-88.37890625,51.26953125
1510188666.7567503,-349.12109375,25.87890625,29.296875,-402.83203125,65.91796875
1510188666.7606566,-155.76171875,22.4609375,18.5546875,68.84765625,90.8203125
1510188666.7645628,-26.3671875,17.578125,14.16015625,507.32421875,104.4921875
1510188666.768469,-220.703125,13.671875,16.11328125,25.390625,90.33203125
1510188666.7723753,-389.6484375,17.08984375,17.578125,-530.2734375,44.921875
1510188666.7762816,-223.6328125,20.99609375,10.7421875,-181.640625,74.21875
1510188666.7801878,-31.25,17.08984375,7.32421875,443.84765625,145.5078125
1510188666.784094,-174.31640625,10.7421875,11.71875,200.1953125,124.0234375
1510188666.7880003,-388.671875,9.765625,15.625,-454.1015625,50.78125
1510188666.790061,-288.57421875,11.71875,12.6953125,-271.97265625,72.265625
1510188666.7939672,-86.9140625,15.13671875,2.9296875,314.94140625,95.703125
1510188666.7978735,-112.79296875,21.97265625,2.9296875,353.515625,89.84375
1510188666.8017797,-354.4921875,24.4140625,17.578125,-297.36328125,63.96484375
1510188666.805686,-360.3515625,19.53125,15.625,-432.6171875,47.36328125
1510188666.8095922,-177.734375,20.5078125,11.71875,147.4609375,95.703125
1510188666.8134985,-122.55859375,26.3671875,16.11328125,433.10546875,97.16796875
1510188666.8174047,-333.0078125,32.71484375,16.6015625,-216.796875,57.6171875
1510188666.821311,-446.77734375,26.3671875,21.484375,-546.38671875,28.3203125
1510188666.8252172,-304.19921875,20.01953125,20.01953125,-69.3359375,28.3203125
1510188666.8291235,-164.55078125,28.80859375,9.27734375,327.1484375,41.015625
1510188666.8330297,-327.1484375,35.64453125,7.8125,-122.0703125,34.66796875
1510188666.8351128,-476.07421875,35.64453125,12.20703125,-696.2890625,-13.18359375
1510188666.839019,-348.6328125,37.59765625,7.32421875,-440.4296875,-10.25390625
1510188666.8429253,-184.5703125,36.62109375,3.90625,113.28125,38.0859375
1510188666.8468316,-272.4609375,33.69140625,10.7421875,-68.359375,22.4609375
1510188666.8507378,-482.91015625,34.1796875,15.625,-756.34765625,-14.6484375
1510188666.854644,-433.10546875,28.3203125,14.16015625,-709.9609375,-36.1328125
1510188666.8585503,-248.046875,27.34375,9.765625,-139.16015625,14.16015625
1510188666.8624566,-249.0234375,30.2734375,7.8125,-1.953125,65.91796875
1510188666.8663628,-468.75,30.2734375,10.25390625,-561.5234375,11.23046875
1510188666.870269,-448.73046875,30.76171875,12.6953125,-725.5859375,-86.42578125
1510188666.8741753,-234.86328125,33.69140625,12.6953125,-206.54296875,-36.1328125
1510188666.8780816,-162.59765625,39.0625,8.30078125,202.1484375,52.734375
1510188666.89548,-380.859375,40.0390625,14.16015625,-250.9765625,-8.7890625
1510188666.8993862,-439.453125,39.0625,18.06640625,-643.06640625,-74.70703125
1510188666.9032924,-240.234375,39.55078125,14.6484375,-211.9140625,-21.97265625
1510188666.9071987,-90.8203125,40.52734375,11.71875,338.37890625,32.2265625
1510188666.911105,-229.98046875,40.52734375,14.16015625,31.25,30.76171875
1510188666.9150112,-394.04296875,36.62109375,17.08984375,-561.03515625,-55.6640625
1510188666.9189174,-269.53125,41.015625,11.71875,-358.88671875,-63.4765625
1510188666.9228237,-79.1015625,40.52734375,4.8828125,288.57421875,23.4375
1510188666.92673,-148.4375,31.25,9.27734375,262.6953125,18.06640625
1510188666.9306362,-353.515625,37.59765625,16.6015625,-411.1328125,-37.109375
1510188666.9345424,-266.6015625,40.52734375,11.23046875,-331.54296875,-67.87109375
1510188666.9384487,-66.89453125,36.1328125,9.27734375,274.4140625,-25.87890625
1510188666.940007,-45.8984375,29.78515625,10.7421875,330.078125,60.546875
1510188666.9439132,-249.0234375,23.4375,16.11328125,-251.953125,62.98828125
1510188666.9478195,-257.32421875,17.578125,17.08984375,-415.52734375,41.9921875
1510188666.9517257,-34.1796875,7.8125,12.20703125,147.4609375,86.42578125
1510188666.955632,85.44921875,6.34765625,7.8125,587.40234375,97.65625
1510188666.9595382,-95.21484375,8.30078125,9.765625,67.87109375,81.0546875
1510188666.9634445,-175.29296875,5.859375,12.20703125,-348.14453125,53.22265625
1510188666.9673507,-2.9296875,4.39453125,6.34765625,74.70703125,31.25
1510188666.971257,159.1796875,7.32421875,4.8828125,648.4375,34.66796875
1510188666.9751632,14.6484375,12.20703125,11.71875,349.609375,31.25
1510188666.9790695,-184.08203125,14.16015625,10.25390625,-220.21484375,60.05859375
1510188666.9829757,-56.15234375,10.7421875,8.30078125,38.0859375,98.14453125
1510188666.9850385,119.62890625,11.71875,7.32421875,587.40234375,99.609375
1510188666.9889448,58.59375,17.578125,9.27734375,543.45703125,123.046875
1510188666.992851,-147.4609375,18.06640625,13.18359375,-104.00390625,157.71484375
1510188666.9967573,-101.5625,20.99609375,8.30078125,-137.6953125,160.64453125
1510188667.0006635,106.93359375,26.3671875,6.34765625,435.546875,155.2734375
1510188667.0045698,148.92578125,25.390625,7.8125,644.04296875,151.3671875
1510188667.008476,-67.3828125,20.5078125,12.20703125,15.625,125.9765625
1510188667.0123823,-119.140625,13.671875,19.04296875,-233.88671875,138.18359375
1510188667.0162885,73.73046875,15.625,18.5546875,258.7890625,133.7890625
1510188667.0201948,207.03125,18.06640625,17.578125,697.265625,103.02734375
1510188667.024101,30.2734375,18.06640625,20.99609375,339.35546875,120.1171875
1510188667.0280073,-100.09765625,18.06640625,19.53125,-114.74609375,144.53125
1510188667.030091,81.54296875,17.08984375,14.6484375,222.16796875,192.3828125
1510188667.0339973,263.18359375,17.08984375,9.765625,780.76171875,163.0859375
1510188667.0379035,147.94921875,20.01953125,12.6953125,551.26953125,147.94921875
1510188667.0418098,-28.3203125,23.4375,22.4609375,-97.65625,166.50390625
1510188667.045716,121.09375,29.296875,20.99609375,20.01953125,145.01953125
1510188667.0496223,331.0546875,23.92578125,19.53125,584.9609375,106.93359375
1510188667.0535285,274.4140625,12.6953125,24.90234375,599.12109375,104.4921875
1510188667.0574348,78.61328125,11.23046875,25.87890625,-49.31640625,122.55859375
1510188667.061341,116.2109375,8.7890625,23.4375,-267.578125,63.4765625
1510188667.0652473,306.15234375,10.25390625,15.13671875,237.3046875,57.12890625
1510188667.0691535,349.609375,7.32421875,17.08984375,604.4921875,109.375
1510188667.0730598,105.46875,1.46484375,29.296875,10.25390625,77.1484375
1510188667.0751042,19.53125,0.48828125,28.80859375,-357.421875,78.61328125
1510188667.0790105,178.22265625,0.48828125,23.92578125,98.14453125,93.75
1510188667.0829167,290.0390625,6.8359375,22.4609375,567.3828125,71.77734375
1510188667.086823,135.7421875,14.16015625,22.94921875,10.7421875,86.42578125
1510188667.0907292,-18.06640625,14.16015625,26.3671875,-617.67578125,54.6875
1510188667.0946355,64.453125,13.18359375,27.34375,-246.09375,41.50390625
1510188667.0985417,188.96484375,14.6484375,25.390625,333.49609375,47.8515625
1510188667.102448,87.40234375,14.6484375,28.80859375,185.546875,13.18359375
1510188667.1063542,-126.46484375,15.625,28.3203125,-470.21484375,-18.06640625
1510188667.1102605,-27.34375,20.5078125,20.5078125,-346.19140625,35.64453125
1510188667.1141667,216.796875,20.99609375,20.01953125,261.71875,44.921875
1510188667.118073,213.37890625,23.4375,25.87890625,322.75390625,19.04296875
1510188667.1201358,-12.6953125,32.71484375,35.15625,-284.1796875,15.625
1510188667.124042,-30.2734375,30.2734375,37.109375,-392.578125,8.7890625
1510188667.1279483,140.13671875,24.4140625,35.64453125,117.1875,38.57421875
1510188667.1318545,191.89453125,21.97265625,35.64453125,456.54296875,48.828125
1510188667.1357608,-38.57421875,21.484375,30.2734375,-49.8046875,38.57421875
1510188667.139667,-121.09375,17.578125,30.2734375,-375.9765625,7.32421875
1510188667.1435733,20.01953125,11.23046875,34.66796875,77.63671875,19.04296875
1510188667.1474795,148.4375,9.765625,32.2265625,500.9765625,33.69140625
1510188667.1513858,29.296875,17.08984375,26.85546875,128.41796875,55.17578125
1510188667.155292,-156.73828125,22.94921875,23.4375,-377.44140625,28.3203125
1510188667.1591983,-76.66015625,15.13671875,20.99609375,-122.55859375,14.6484375
1510188667.1631045,72.75390625,10.7421875,21.97265625,497.55859375,73.2421875
1510188667.1651871,-15.13671875,15.13671875,24.4140625,448.2421875,82.51953125
1510188667.1690934,-236.81640625,13.18359375,28.3203125,-229.4921875,91.796875
1510188667.1729996,-181.640625,14.16015625,25.87890625,-185.05859375,81.54296875
1510188667.1769059,3.90625,17.08984375,17.578125,394.04296875,66.89453125
1510188667.1808121,29.296875,18.5546875,20.5078125,565.91796875,79.58984375
1510188667.1847184,-163.57421875,14.16015625,23.92578125,7.32421875,84.47265625
1510188667.1886246,-179.6875,9.765625,23.4375,-271.97265625,48.828125
1510188667.1925309,10.7421875,23.4375,16.6015625,175.29296875,29.296875
1510188667.1964371,102.5390625,20.5078125,12.6953125,615.72265625,79.58984375
1510188667.2003434,-83.49609375,8.7890625,26.3671875,145.99609375,75.68359375
1510188667.2042496,-202.1484375,15.625,25.87890625,-336.42578125,57.6171875
1510188667.2081559,-83.0078125,20.5078125,13.671875,20.01953125,87.890625
1510188667.2252088,55.6640625,12.20703125,10.25390625,605.95703125,98.6328125
1510188667.229115,-64.94140625,8.7890625,13.671875,400.87890625,134.765625
1510188667.2330213,-249.0234375,15.13671875,13.671875,-178.7109375,137.20703125
1510188667.2369275,-167.48046875,17.578125,8.7890625,-118.1640625,147.4609375
1510188667.2408338,7.32421875,10.7421875,8.7890625,329.1015625,191.89453125
1510188667.24474,-66.89453125,2.9296875,13.671875,372.55859375,168.45703125
1510188667.2486463,-322.265625,6.8359375,13.671875,-184.08203125,130.37109375
1510188667.2525525,-272.94921875,12.6953125,13.18359375,-170.8984375,101.07421875
1510188667.2564588,-31.73828125,12.20703125,8.7890625,408.203125,149.4140625
1510188667.260365,20.5078125,10.7421875,7.8125,541.015625,178.22265625
1510188667.2642713,-223.6328125,5.37109375,17.578125,-61.5234375,142.08984375
1510188667.2681775,-253.90625,6.34765625,13.671875,-254.8828125,136.23046875
1510188667.255232,-19.04296875,8.7890625,3.90625,260.7421875,152.34375
1510188667.2591383,101.5625,6.8359375,2.44140625,624.51171875,173.828125
1510188667.2630446,-95.21484375,15.13671875,7.32421875,99.12109375,191.40625
1510188667.2669508,-220.21484375,26.3671875,11.71875,-348.6328125,143.5546875
1510188667.270857,-85.44921875,28.3203125,10.7421875,34.1796875,134.27734375
1510188667.2747633,83.0078125,28.80859375,6.34765625,641.6015625,188.96484375
1510188667.2786696,-67.3828125,32.2265625,12.20703125,367.1875,215.8203125
1510188667.2825758,-309.5703125,34.1796875,17.578125,-268.5546875,235.3515625
1510188667.286482,-218.26171875,30.76171875,13.18359375,-41.50390625,266.6015625
1510188667.2903883,-54.19921875,31.25,9.765625,543.9453125,249.0234375
1510188667.2942946,-31.73828125,33.203125,14.6484375,560.05859375,257.32421875
1510188667.2982008,-204.1015625,34.66796875,15.625,-23.92578125,278.80859375
1510188667.3152733,-160.64453125,35.64453125,8.30078125,-99.12109375,250.48828125
1510188667.3191795,65.91796875,36.1328125,4.8828125,416.50390625,261.23046875
1510188667.3230858,192.87109375,30.2734375,4.39453125,645.99609375,258.7890625
1510188667.326992,59.5703125,22.4609375,9.765625,57.6171875,256.8359375
1510188667.3308983,58.59375,19.04296875,10.7421875,-293.9453125,242.1875
1510188667.3348045,283.69140625,20.99609375,6.8359375,119.62890625,229.4921875
1510188667.3387108,362.79296875,23.4375,7.32421875,541.015625,225.09765625
1510188667.342617,157.71484375,24.90234375,12.6953125,43.45703125,238.76953125
1510188667.3465233,0.0,29.296875,12.20703125,-524.4140625,224.12109375
1510188667.3504295,136.23046875,18.06640625,15.625,-274.4140625,146.97265625
1510188667.3543358,313.4765625,17.08984375,12.6953125,324.21875,125.0
1510188667.358242,201.171875,15.625,6.34765625,197.75390625,134.765625
1510188667.3603091,49.31640625,2.9296875,11.23046875,-522.4609375,74.21875
1510188667.3642154,120.1171875,20.5078125,8.30078125,-504.8828125,97.65625
1510188667.3681216,298.33984375,7.32421875,3.41796875,85.9375,154.78515625
1510188667.3720279,315.4296875,-0.9765625,1.953125,201.171875,129.39453125
1510188667.3759341,23.4375,17.578125,13.18359375,-472.16796875,65.4296875
1510188667.3798404,0.48828125,29.296875,2.44140625,-642.08984375,19.04296875
1510188667.3837466,171.38671875,17.08984375,16.11328125,-102.05078125,43.45703125
1510188667.3876529,270.5078125,-2.9296875,22.94921875,287.59765625,59.08203125
1510188667.3915591,123.046875,-5.37109375,8.30078125,-131.34765625,2.44140625
1510188667.3954654,-33.69140625,6.8359375,12.6953125,-479.4921875,-23.92578125
1510188667.3993716,49.8046875,25.390625,8.7890625,-31.73828125,31.73828125
1510188667.4032779,217.28515625,7.8125,8.7890625,475.5859375,40.52734375
1510188667.4053385,72.265625,18.06640625,18.5546875,56.640625,5.37109375
1510188667.4092448,-104.00390625,20.99609375,19.04296875,-496.58203125,-0.48828125
1510188667.413151,84.47265625,-3.41796875,12.6953125,-140.625,0.48828125
1510188667.4170573,261.71875,2.44140625,17.08984375,484.375,8.7890625
1510188667.4209635,194.3359375,-0.9765625,35.15625,355.46875,51.7578125
1510188667.4248698,23.92578125,2.9296875,46.38671875,-246.09375,75.68359375
1510188667.428776,83.49609375,21.484375,17.08984375,-189.94140625,53.7109375
1510188667.4326823,315.91796875,-2.44140625,8.30078125,389.16015625,49.8046875
1510188667.4365885,318.84765625,0.0,30.2734375,536.62109375,53.7109375
1510188667.4404948,67.3828125,47.36328125,4.39453125,-99.609375,63.4765625
1510188667.444401,44.921875,14.16015625,8.30078125,-257.8125,89.84375
1510188667.4483073,248.046875,-14.6484375,18.5546875,314.453125,89.35546875
1510188667.4499357,306.15234375,9.27734375,14.16015625,669.43359375,91.30859375
1510188667.453842,20.01953125,3.41796875,37.109375,130.859375,121.09375
1510188667.4577482,-62.98828125,8.7890625,12.6953125,-218.26171875,128.41796875
1510188667.4616544,88.37890625,1.953125,2.44140625,188.96484375,156.73828125
1510188667.4655607,192.3828125,-1.953125,27.83203125,665.0390625,172.36328125
1510188667.469467,53.22265625,9.27734375,35.64453125,353.02734375,122.0703125
1510188667.4733732,-152.83203125,10.25390625,8.30078125,-309.5703125,96.6796875
1510188667.4772794,-96.6796875,14.6484375,2.9296875,-202.1484375,85.9375
1510188667.4811857,48.33984375,13.671875,7.32421875,362.3046875,63.96484375
1510188667.485092,-40.52734375,21.484375,13.671875,363.76953125,87.40234375
1510188667.4889982,-308.59375,20.01953125,14.6484375,-302.24609375,114.74609375
1510188667.4929044,-278.3203125,3.90625,7.8125,-422.8515625,93.75
1510188667.4949865,-76.171875,11.23046875,9.27734375,96.6796875,126.953125
1510188667.4988928,-94.23828125,34.66796875,20.99609375,282.2265625,141.11328125
1510188667.502799,-395.99609375,30.2734375,39.0625,-325.1953125,74.21875
1510188667.5067053,-405.76171875,7.8125,12.6953125,-519.04296875,36.62109375
1510188667.5106115,-145.99609375,16.11328125,-20.99609375,50.78125,62.5
1510188667.5145178,-46.875,15.13671875,0.48828125,424.8046875,106.4453125
1510188667.518424,-243.65234375,-1.953125,25.390625,-87.40234375,105.46875
1510188667.5223303,-386.71875,11.23046875,26.85546875,-581.54296875,39.55078125
1510188667.5262365,-229.98046875,24.90234375,7.8125,-193.84765625,97.16796875
1510188667.5301428,-55.17578125,18.5546875,9.27734375,440.4296875,158.69140625
1510188667.534049,-187.01171875,39.55078125,20.99609375,112.79296875,117.67578125
1510188667.5379553,-380.37109375,46.875,13.671875,-552.24609375,76.66015625
1510188667.5405107,-318.84765625,42.96875,23.92578125,-385.25390625,71.2890625
1510188667.544417,-158.203125,44.921875,2.44140625,213.8671875,145.5078125
1510188667.5483232,-147.4609375,27.83203125,-8.30078125,288.57421875,181.640625
1510188667.5522294,-371.09375,31.25,11.23046875,-375.0,108.3984375
1510188667.5561357,-415.52734375,51.7578125,9.27734375,-516.6015625,100.09765625
1510188667.560042,-250.48828125,66.40625,3.90625,88.37890625,148.92578125
1510188667.5639482,-195.3125,28.3203125,4.39453125,372.55859375,119.140625
1510188667.5678544,-377.44140625,13.671875,8.7890625,-300.29296875,74.70703125
1510188667.5717607,-442.87109375,30.2734375,10.25390625,-574.21875,71.77734375
1510188667.575667,-265.13671875,29.296875,7.8125,-50.78125,120.1171875
1510188667.5795732,-119.140625,33.69140625,3.41796875,384.27734375,154.296875
1510188667.5834794,-280.2734375,30.2734375,22.4609375,-79.58984375,147.94921875
1510188667.5850508,-429.6875,48.33984375,23.4375,-602.5390625,95.21484375
1510188667.588957,-298.33984375,47.8515625,24.4140625,-222.65625,96.19140625
1510188667.5928633,-117.67578125,14.16015625,33.203125,316.40625,149.4140625
1510188667.5967696,-210.44921875,16.6015625,27.34375,71.77734375,130.37109375
1510188667.6006758,-394.04296875,19.04296875,39.0625,-566.40625,72.265625
1510188667.604582,-294.921875,20.01953125,32.71484375,-471.19140625,63.4765625
1510188667.6084883,-92.7734375,19.04296875,9.765625,96.6796875,90.8203125
1510188667.6123946,-115.234375,18.5546875,12.6953125,188.4765625,104.98046875
1510188667.6163008,-386.23046875,27.83203125,22.94921875,-441.40625,90.33203125
1510188667.620207,-363.76953125,17.578125,24.4140625,-571.2890625,55.17578125
1510188667.6241133,-91.796875,2.9296875,17.08984375,52.24609375,83.984375
1510188667.6280196,-39.55078125,21.97265625,14.16015625,373.046875,138.671875
1510188667.6450922,-251.953125,22.4609375,14.6484375,-145.01953125,116.2109375
1510188667.6489985,-397.4609375,34.1796875,37.59765625,-541.50390625,76.66015625
1510188667.6529047,-220.703125,17.578125,29.296875,-133.7890625,75.1953125
1510188667.656811,4.39453125,-16.11328125,6.34765625,416.015625,70.80078125
1510188667.6607172,-170.8984375,5.37109375,22.4609375,38.0859375,102.5390625
1510188667.6646235,-304.6875,4.8828125,24.4140625,-522.94921875,50.29296875
1510188667.6685297,-177.734375,28.80859375,13.18359375,-260.7421875,6.8359375
1510188667.672436,2.44140625,30.2734375,14.6484375,346.19140625,92.7734375
1510188667.6763422,-69.82421875,0.0,24.90234375,216.30859375,126.953125
1510188667.6802485,-286.1328125,6.8359375,24.4140625,-533.203125,48.33984375
1510188667.6841547,-216.796875,6.34765625,23.4375,-476.07421875,40.52734375
1510188667.688061,-0.48828125,4.8828125,19.04296875,201.66015625,71.77734375
1510188667.6902254,45.41015625,17.08984375,17.08984375,271.484375,32.71484375
1510188667.6941316,-189.453125,19.04296875,21.97265625,-420.41015625,-19.04296875
1510188667.6980379,-254.39453125,9.27734375,19.53125,-568.359375,-76.66015625
1510188667.701944,-56.640625,6.34765625,11.71875,-33.69140625,-79.1015625
1510188667.7058504,92.7734375,12.20703125,11.23046875,287.109375,-57.6171875
1510188667.7097566,-99.12109375,19.53125,17.08984375,-254.8828125,-71.77734375
1510188667.7136629,-240.72265625,20.5078125,16.11328125,-679.19921875,-120.60546875
1510188667.717569,-104.98046875,19.04296875,12.20703125,-285.64453125,-107.421875
1510188667.7214754,16.11328125,22.94921875,12.6953125,219.7265625,-66.40625
1510188667.7253816,-158.203125,30.2734375,16.6015625,-160.64453125,-104.98046875
1510188667.7292879,-356.93359375,31.25,17.578125,-784.66796875,-184.08203125
1510188667.733194,-213.8671875,29.78515625,12.20703125,-534.1796875,-211.9140625
1510188667.735239,-15.13671875,23.92578125,11.71875,-12.6953125,-224.609375
1510188667.7391453,-78.61328125,18.06640625,17.08984375,-196.77734375,-187.01171875
1510188667.7430515,-241.2109375,19.04296875,20.99609375,-890.625,-587.890625
1510188667.7469578,-117.67578125,18.5546875,18.5546875,-924.31640625,-867.1875
1510188667.750864,182.12890625,20.5078125,12.20703125,-255.859375,-463.8671875
1510188667.7547703,293.45703125,20.5078125,14.16015625,89.35546875,-320.3125
1510188667.7586765,92.28515625,24.4140625,18.06640625,-426.26953125,-365.234375
1510188667.7625828,81.0546875,26.85546875,19.04296875,-569.82421875,-412.109375
1510188667.766489,311.03515625,27.34375,20.01953125,2.9296875,-387.6953125
1510188667.7703953,429.6875,29.296875,19.04296875,491.2109375,-352.5390625
1510188667.7743015,186.5234375,29.296875,22.4609375,131.8359375,-369.140625
1510188667.7782078,8.30078125,28.3203125,28.3203125,-274.4140625,-373.53515625
1510188667.7952812,175.29296875,26.3671875,24.4140625,103.02734375,-355.46875
1510188667.7991874,354.00390625,26.85546875,16.6015625,656.73828125,-352.05078125
1510188667.8030937,209.47265625,29.78515625,15.625,414.0625,-356.93359375
1510188667.807,-26.85546875,30.2734375,22.94921875,-148.92578125,-354.98046875
1510188667.8109062,65.4296875,32.71484375,24.4140625,118.65234375,-330.56640625
1510188667.8148124,264.16015625,29.296875,20.5078125,774.4140625,-348.14453125
1510188667.8187187,192.87109375,24.90234375,16.6015625,770.5078125,-369.140625
1510188667.822625,-56.640625,28.3203125,17.578125,182.6171875,-330.078125
1510188667.8265312,-60.546875,24.4140625,19.04296875,129.39453125,-283.69140625
1510188667.8304374,119.140625,17.578125,12.6953125,686.03515625,-301.7578125
1510188667.8343437,168.9453125,16.11328125,11.23046875,999.0234375,-406.73828125
1510188667.83825,-68.359375,19.04296875,13.18359375,491.69921875,-332.51953125
1510188667.8253028,-171.875,16.11328125,12.20703125,225.5859375,-219.7265625
1510188667.829209,-23.92578125,10.7421875,11.71875,688.4765625,-189.94140625
1510188667.8331153,65.91796875,7.8125,13.18359375,-952.1484375,-334.9609375
1510188667.8370216,-128.90625,12.20703125,17.578125,610.83984375,-291.9921875
1510188667.8409278,-283.69140625,17.578125,14.16015625,148.92578125,-165.0390625
1510188667.844834,-187.01171875,19.53125,8.7890625,483.88671875,-119.62890625
1510188667.8487403,-39.55078125,11.71875,11.23046875,976.5625,-230.46875
1510188667.8526466,-170.8984375,3.90625,19.53125,765.625,-212.890625
1510188667.8565528,-427.24609375,12.6953125,18.5546875,159.1796875,-49.31640625
1510188667.860459,-365.234375,13.18359375,13.671875,335.9375,26.3671875
1510188667.8643653,-138.671875,6.8359375,11.71875,913.0859375,-125.9765625
1510188667.8682716,-147.4609375,5.37109375,19.04296875,877.44140625,-261.23046875
1510188667.870353,-390.625,7.32421875,23.4375,224.609375,-59.5703125
1510188667.8742592,-368.1640625,13.18359375,17.578125,132.32421875,33.203125
1510188667.8781655,-134.765625,11.23046875,18.5546875,672.36328125,45.8984375
1510188667.8820717,-2.44140625,11.23046875,18.06640625,875.9765625,27.34375
1510188667.885978,-183.59375,13.18359375,20.99609375,245.1171875,23.92578125
1510188667.8898842,-265.13671875,7.8125,20.01953125,-97.65625,55.17578125
1510188667.8937905,-55.17578125,-1.953125,20.01953125,349.12109375,72.75390625
1510188667.8976967,90.8203125,-3.90625,18.06640625,674.8046875,48.33984375
1510188667.901603,-34.66796875,3.41796875,18.06640625,258.7890625,47.36328125
1510188667.9055092,-120.1171875,8.30078125,22.4609375,-165.52734375,-2.9296875
1510188667.9094155,63.4765625,10.25390625,20.01953125,76.66015625,-52.24609375
1510188667.9133217,281.25,20.01953125,17.578125,616.69921875,-27.83203125
1510188667.915365,146.484375,28.3203125,21.97265625,385.25390625,-37.109375
1510188667.9192712,-66.40625,20.5078125,29.78515625,-398.4375,-91.30859375
1510188667.9231775,41.50390625,14.16015625,33.203125,-348.14453125,-100.5859375
1510188667.9270837,235.3515625,17.578125,28.3203125,276.85546875,-78.61328125
1510188667.93099,237.3046875,17.08984375,23.4375,451.171875,-76.66015625
1510188667.9348962,-11.71875,18.5546875,26.85546875,-209.9609375,-47.36328125
1510188667.9388025,-28.80859375,20.01953125,27.34375,-465.33203125,-32.71484375
1510188667.9427087,185.546875,17.578125,21.97265625,15.625,-66.40625
1510188667.946615,262.20703125,20.5078125,14.6484375,425.29296875,-50.78125
1510188667.9505212,33.69140625,19.53125,19.53125,-43.9453125,-22.4609375
1510188667.9544275,-83.984375,17.08984375,23.4375,-553.7109375,-72.265625
1510188667.9583337,66.40625,17.08984375,23.92578125,-246.09375,-82.03125
1510188667.959907,214.84375,19.04296875,21.97265625,246.09375,-39.0625
1510188667.9638133,65.4296875,22.94921875,20.01953125,-99.12109375,-49.31640625
1510188667.9677196,-120.1171875,25.390625,22.94921875,-706.0546875,-84.47265625
1510188667.9716258,8.7890625,30.2734375,20.01953125,-499.0234375,-122.0703125
1510188667.975532,203.61328125,41.015625,16.6015625,128.90625,-78.125
1510188667.9794383,136.23046875,51.26953125,20.5078125,104.98046875,-40.52734375
1510188667.9833446,-97.16796875,44.921875,23.92578125,-541.015625,-104.00390625
1510188667.9872508,-50.29296875,36.1328125,19.53125,-509.27734375,-102.5390625
1510188667.991157,169.921875,41.015625,15.625,114.2578125,-57.12890625
1510188667.9950633,181.640625,44.43359375,18.06640625,236.328125,-78.125
1510188667.9989696,-69.82421875,42.48046875,20.5078125,-467.28515625,-113.28125
1510188668.0028758,-127.44140625,40.52734375,20.01953125,-721.6796875,-157.71484375
1510188668.019949,37.109375,41.015625,15.13671875,-259.27734375,-129.39453125
1510188668.0238552,126.46484375,41.9921875,11.71875,78.61328125,-44.43359375
1510188668.0277615,-76.66015625,41.9921875,14.16015625,-348.14453125,-55.17578125
1510188668.0316677,-216.796875,44.43359375,17.578125,-685.546875,-127.44140625
1510188668.035574,-63.4765625,44.43359375,20.01953125,-290.52734375,-148.92578125
1510188668.0394802,86.42578125,43.45703125,22.4609375,169.43359375,-127.44140625
1510188668.0433865,-81.0546875,46.875,23.92578125,-147.94921875,-110.83984375
1510188668.0472927,-280.76171875,49.31640625,20.99609375,-710.9375,-144.04296875
1510188668.051199,-184.08203125,43.9453125,18.5546875,-493.1640625,-159.1796875
1510188668.0551052,22.94921875,42.48046875,24.4140625,86.42578125,-104.00390625
1510188668.0590115,-16.11328125,42.48046875,25.87890625,49.8046875,-80.078125
1510188668.0629177,-247.55859375,39.0625,27.83203125,-591.30859375,-132.8125
1510188668.0653253,-200.68359375,38.57421875,27.83203125,-640.13671875,-155.76171875
1510188668.0692315,12.6953125,38.57421875,21.97265625,-57.6171875,-90.8203125
1510188668.0731378,59.08203125,38.0859375,21.484375,214.35546875,-47.8515625
1510188668.077044,-172.8515625,41.9921875,25.390625,-372.55859375,-108.88671875
1510188668.0809503,-241.2109375,40.52734375,28.3203125,-666.50390625,-170.41015625
1510188668.0848565,-57.12890625,37.59765625,28.3203125,-186.5234375,-101.5625
1510188668.0887628,80.56640625,39.55078125,26.3671875,251.953125,-48.828125
1510188668.092669,-95.21484375,40.52734375,24.90234375,-171.38671875,-109.86328125
1510188668.0965753,-251.953125,34.1796875,26.3671875,-680.17578125,-183.10546875
1510188668.1004815,-117.1875,26.3671875,27.34375,-245.1171875,-179.19921875
1510188668.1043878,76.66015625,26.85546875,17.578125,427.24609375,-124.0234375
1510188668.108294,-25.390625,34.1796875,18.5546875,145.01953125,-117.67578125
1510188668.1103373,-255.859375,35.15625,25.390625,-522.94921875,-104.4921875
1510188668.1142435,-169.43359375,23.4375,19.53125,-448.2421875,-116.2109375
1510188668.1181498,40.52734375,19.04296875,13.18359375,117.1875,-90.33203125
1510188668.122056,20.99609375,22.4609375,15.625,194.3359375,-43.45703125
1510188668.1259623,-215.33203125,29.296875,22.4609375,-430.6640625,-74.21875
1510188668.1298685,-204.58984375,34.1796875,21.97265625,-483.88671875,-93.75
1510188668.1337748,-0.9765625,34.66796875,15.13671875,77.1484375,-81.54296875
1510188668.137681,65.91796875,37.109375,13.671875,358.88671875,-35.64453125
1510188668.1415873,-147.94921875,34.66796875,18.5546875,-204.58984375,-36.62109375
1510188668.1454935,-215.33203125,35.15625,17.578125,-557.12890625,-90.33203125
1510188668.1493998,-25.87890625,33.69140625,12.20703125,-30.76171875,-59.5703125
1510188668.153306,94.23828125,31.73828125,13.18359375,502.44140625,6.8359375
1510188668.1553686,-88.37890625,34.1796875,19.53125,95.703125,-15.625
1510188668.1592748,-252.44140625,32.2265625,21.97265625,-441.89453125,-64.453125
1510188668.163181,-105.95703125,35.15625,20.01953125,-154.296875,-31.73828125
1510188668.1670873,85.44921875,31.25,17.08984375,403.80859375,-8.30078125
1510188668.1709936,-15.13671875,25.390625,16.6015625,236.328125,-23.4375
1510188668.1748998,-231.93359375,23.4375,19.04296875,-393.06640625,-29.296875
1510188668.178806,-151.3671875,21.484375,15.13671875,-296.875,-18.5546875
1510188668.1827123,61.5234375,18.06640625,14.16015625,295.8984375,0.48828125
1510188668.1866186,46.875,15.13671875,20.5078125,324.21875,-42.96875
1510188668.1905248,-187.01171875,19.04296875,18.5546875,-343.26171875,-77.1484375
1510188668.194431,-178.22265625,16.11328125,19.04296875,-403.3203125,-71.2890625
1510188668.1983373,28.80859375,15.13671875,20.99609375,150.87890625,-59.08203125
1510188668.2004294,125.48828125,16.6015625,17.08984375,462.890625,-18.06640625
1510188668.2043357,-78.125,19.04296875,20.01953125,-76.171875,-14.6484375
1510188668.208242,-193.359375,20.01953125,20.5078125,-457.51953125,-35.64453125
1510188668.2121482,-36.62109375,11.71875,13.18359375,-47.36328125,-28.3203125
1510188668.2160544,132.32421875,6.8359375,11.23046875,458.0078125,7.8125
1510188668.2199607,-20.5078125,11.23046875,18.06640625,138.671875,18.5546875
1510188668.223867,-205.56640625,12.20703125,21.484375,-400.87890625,35.64453125
1510188668.2277732,-77.1484375,8.7890625,15.625,-167.48046875,15.625
1510188668.2316794,110.83984375,12.6953125,8.30078125,396.484375,3.90625
1510188668.2355857,47.36328125,20.5078125,10.25390625,373.53515625,57.6171875
1510188668.239492,-173.33984375,23.4375,15.13671875,-258.7890625,46.875
1510188668.2433982,-112.3046875,24.90234375,11.23046875,-262.20703125,18.5546875
1510188668.244952,92.7734375,23.4375,9.765625,352.05078125,33.69140625
1510188668.2488582,96.6796875,22.4609375,15.13671875,567.87109375,86.42578125
1510188668.2527645,-146.97265625,24.4140625,22.94921875,-66.89453125,58.59375
1510188668.2566707,-171.38671875,32.71484375,16.6015625,-318.359375,24.4140625
1510188668.260577,7.8125,36.62109375,11.23046875,184.08203125,88.37890625
1510188668.2644832,102.05078125,34.66796875,17.578125,570.3125,125.0
1510188668.2683895,-105.95703125,39.0625,25.87890625,69.82421875,88.8671875
1510188668.2722957,-230.95703125,41.9921875,25.87890625,-401.85546875,35.15625
1510188668.276202,-55.17578125,43.45703125,15.625,-25.87890625,68.84765625
1510188668.2801082,115.72265625,46.38671875,9.765625,506.8359375,80.56640625
1510188668.2840145,-24.90234375,44.921875,15.625,150.87890625,48.828125
1510188668.2879207,-209.9609375,43.45703125,23.4375,-475.5859375,37.109375
1510188668.2899847,-82.03125,45.41015625,26.3671875,-231.93359375,32.71484375
1510188668.293891,64.94140625,43.45703125,25.87890625,409.66796875,49.8046875
1510188668.2977972,8.7890625,43.9453125,25.87890625,368.1640625,91.796875
1510188668.3017035,-210.44921875,48.33984375,26.85546875,-328.125,64.94140625
1510188668.3056097,-194.82421875,48.33984375,26.85546875,-382.8125,20.5078125
1510188668.309516,35.64453125,49.31640625,24.90234375,214.35546875,42.96875
1510188668.3134222,83.49609375,50.29296875,23.92578125,466.30859375,19.53125
1510188668.3173285,-147.4609375,50.78125,26.3671875,-156.73828125,-12.20703125
1510188668.3212347,-188.96484375,53.22265625,27.34375,-398.92578125,-10.25390625
1510188668.325141,-3.41796875,49.31640625,26.3671875,96.19140625,7.32421875
1510188668.3290472,103.515625,44.43359375,25.87890625,471.19140625,42.48046875
1510188668.3329535,-75.68359375,48.828125,25.390625,7.8125,26.85546875
1510188668.3500276,-211.9140625,46.875,26.3671875,-440.91796875,-28.3203125
1510188668.3539338,-68.359375,41.50390625,30.2734375,-74.70703125,-14.16015625
1510188668.35784,111.328125,41.9921875,25.390625,452.63671875,38.0859375
1510188668.3617463,-26.85546875,37.59765625,22.94921875,209.47265625,24.90234375
1510188668.3656526,-252.44140625,32.71484375,26.85546875,-395.99609375,-17.578125
1510188668.3695588,-165.52734375,36.62109375,26.85546875,-251.46484375,-4.39453125
1510188668.373465,49.31640625,38.0859375,22.94921875,301.26953125,24.4140625
1510188668.3773713,13.18359375,38.57421875,22.94921875,332.03125,34.66796875
1510188668.3812776,-231.4453125,41.50390625,29.78515625,-250.9765625,11.23046875
1510188668.3851838,-204.58984375,39.55078125,26.85546875,-351.5625,-37.59765625
1510188668.38909,-7.32421875,33.69140625,20.01953125,173.828125,-11.23046875
1510188668.3929963,38.57421875,36.1328125,17.08984375,464.35546875,2.44140625
1510188668.380549,-190.4296875,40.52734375,23.92578125,-94.7265625,-44.921875
1510188668.3844552,-269.04296875,39.0625,23.4375,-439.453125,-47.8515625
1510188668.3883615,-95.21484375,40.0390625,17.08984375,1.46484375,-14.6484375
1510188668.3922677,26.85546875,44.43359375,15.625,464.35546875,-14.16015625
1510188668.396174,-138.671875,51.26953125,20.01953125,100.5859375,-18.5546875
1510188668.4000802,-290.0390625,56.15234375,22.4609375,-418.45703125,-27.34375
1510188668.4039865,-162.59765625,54.6875,19.53125,-159.1796875,5.859375
1510188668.4078927,12.20703125,50.29296875,17.08984375,395.99609375,31.73828125
1510188668.411799,-89.84375,50.29296875,20.01953125,216.30859375,3.90625
1510188668.4157052,-300.78125,53.7109375,25.390625,-441.40625,-27.34375
1510188668.4196115,-219.7265625,55.6640625,23.4375,-390.13671875,-14.16015625
1510188668.4235177,-19.53125,52.24609375,19.53125,228.515625,45.41015625
1510188668.4400706,-8.30078125,49.31640625,24.90234375,357.91015625,39.55078125
1510188668.4439769,-247.55859375,45.8984375,29.296875,-307.12890625,-12.20703125
1510188668.4478831,-273.92578125,34.66796875,22.94921875,-454.58984375,-38.0859375
1510188668.4517894,-75.68359375,26.85546875,16.6015625,104.98046875,-4.8828125
1510188668.4556956,38.0859375,28.3203125,19.53125,435.05859375,32.2265625
1510188668.4596019,-172.8515625,29.78515625,25.390625,-101.5625,38.0859375
1510188668.4635081,-299.31640625,29.296875,22.94921875,-484.375,-23.4375
1510188668.4674144,-125.9765625,26.3671875,17.578125,-39.0625,-11.71875
1510188668.4713206,36.1328125,22.4609375,17.578125,458.49609375,15.625
1510188668.4752269,-107.421875,20.99609375,22.4609375,64.453125,-8.30078125
1510188668.4791331,-288.57421875,19.04296875,23.92578125,-459.47265625,14.6484375
1510188668.4830394,-159.1796875,18.06640625,21.97265625,-167.96875,14.16015625
1510188668.485104,37.109375,17.578125,18.06640625,381.8359375,11.23046875
1510188668.4890103,-32.2265625,23.4375,19.04296875,265.625,-6.8359375
1510188668.4929166,-246.09375,25.87890625,20.01953125,-349.609375,-32.71484375
1510188668.4968228,-200.1953125,25.390625,17.578125,-291.50390625,-31.25
1510188668.500729,-2.44140625,27.34375,15.13671875,273.4375,-23.92578125
1510188668.5046353,27.34375,27.83203125,20.5078125,416.50390625,-12.6953125
1510188668.5085416,-200.1953125,32.2265625,27.83203125,-198.2421875,-21.97265625
1510188668.5124478,-226.07421875,28.80859375,22.4609375,-389.16015625,-20.99609375
1510188668.516354,-15.625,19.53125,18.06640625,124.51171875,-15.625
1510188668.5202603,92.7734375,17.578125,15.13671875,498.53515625,-4.39453125
1510188668.5241666,-110.83984375,19.53125,19.53125,42.48046875,27.34375
1510188668.5280728,-238.76953125,16.6015625,25.390625,-368.1640625,16.11328125
1510188668.5451655,-86.42578125,15.13671875,20.01953125,-21.97265625,30.2734375
1510188668.5490718,82.03125,14.16015625,15.13671875,482.91015625,66.40625
1510188668.552978,-51.7578125,10.7421875,20.01953125,222.65625,54.6875
1510188668.5568843,-256.8359375,11.71875,26.85546875,-367.1875,17.578125
1510188668.5607905,-147.94921875,12.20703125,26.3671875,-181.15234375,27.34375
1510188668.5646968,61.03515625,8.30078125,22.94921875,399.90234375,37.109375
1510188668.568603,22.94921875,9.765625,22.4609375,355.95703125,49.31640625
1510188668.5725093,-204.1015625,10.7421875,28.3203125,-279.296875,53.7109375
1510188668.5764155,-165.0390625,5.37109375,30.76171875,-322.265625,5.859375
1510188668.5803218,36.1328125,7.32421875,23.92578125,245.1171875,29.296875
1510188668.584228,82.51953125,12.6953125,18.5546875,502.9296875,69.82421875
1510188668.5881343,-151.85546875,19.04296875,22.94921875,-119.140625,66.89453125
1510188668.5751863,-228.02734375,25.87890625,18.5546875,-423.828125,32.71484375
1510188668.5790925,-25.87890625,21.484375,10.25390625,85.9375,30.2734375
1510188668.5829988,102.5390625,16.11328125,10.25390625,523.4375,52.734375
1510188668.586905,-104.98046875,20.5078125,16.6015625,28.80859375,34.1796875
1510188668.5908113,-257.8125,24.4140625,22.4609375,-468.26171875,52.734375
1510188668.5947175,-117.67578125,23.4375,20.99609375,-122.0703125,77.63671875
1510188668.5986238,46.875,22.94921875,17.08984375,413.0859375,60.05859375
1510188668.60253,-64.453125,25.87890625,17.578125,163.0859375,27.83203125
1510188668.6064363,-267.08984375,25.390625,18.06640625,-424.31640625,23.4375
1510188668.6103425,-153.3203125,25.390625,15.625,-224.609375,82.51953125
1510188668.6142488,75.1953125,31.25,13.18359375,400.390625,111.328125
1510188668.618155,27.34375,27.34375,18.06640625,414.0625,10.25390625
1510188668.6202102,-196.77734375,27.34375,22.4609375,-249.0234375,-29.78515625
1510188668.6241164,-144.53125,28.3203125,14.6484375,-286.62109375,43.45703125
1510188668.6280227,71.2890625,19.53125,12.20703125,224.609375,54.6875
1510188668.631929,140.625,14.6484375,14.16015625,438.96484375,59.5703125
1510188668.6358352,-66.40625,19.53125,17.578125,-120.60546875,44.921875
1510188668.6397414,-155.2734375,20.5078125,19.53125,-425.29296875,56.640625
1510188668.6436477,2.44140625,13.671875,13.671875,0.9765625,64.453125
1510188668.647554,145.5078125,12.6953125,12.6953125,374.51171875,11.23046875
1510188668.6514602,-10.7421875,15.625,18.5546875,-15.625,39.55078125
1510188668.6553664,-165.0390625,12.6953125,19.53125,-453.61328125,68.359375
1510188668.6592727,-21.97265625,7.32421875,14.16015625,-149.4140625,37.59765625
1510188668.663179,157.71484375,6.8359375,9.765625,396.97265625,78.125
1510188668.665251,53.22265625,15.13671875,13.671875,189.94140625,94.23828125
1510188668.6691573,-156.73828125,17.08984375,16.6015625,-427.734375,29.78515625
1510188668.6730635,-79.1015625,14.16015625,14.16015625,-316.89453125,16.11328125
1510188668.6769698,119.62890625,13.671875,11.23046875,290.52734375,79.1015625
1510188668.680876,102.5390625,15.625,15.13671875,411.1328125,60.546875
1510188668.6847823,-140.13671875,14.6484375,21.97265625,-255.37109375,14.16015625
1510188668.6886885,-139.16015625,14.6484375,19.53125,-420.8984375,29.296875
1510188668.6925948,66.40625,18.06640625,14.16015625,113.76953125,70.80078125
1510188668.696501,158.69140625,19.53125,17.08984375,476.5625,104.4921875
1510188668.7004073,-53.22265625,20.01953125,26.85546875,-45.8984375,50.29296875
1510188668.7043135,-156.73828125,21.97265625,29.296875,-453.61328125,-13.671875
1510188668.7082198,24.4140625,25.390625,24.4140625,-16.6015625,12.6953125
1510188668.7102644,173.828125,25.390625,20.5078125,480.46875,47.8515625
1510188668.7141707,7.8125,21.484375,20.01953125,99.609375,41.015625
1510188668.718077,-170.41015625,19.53125,20.01953125,-457.03125,-0.9765625
1510188668.7219832,-55.6640625,19.53125,19.53125,-188.96484375,-4.8828125
1510188668.7258894,140.13671875,16.11328125,15.625,395.99609375,13.671875
1510188668.7297957,61.5234375,22.4609375,18.06640625,301.26953125,32.71484375
1510188668.733702,-171.38671875,30.76171875,24.4140625,-329.1015625,-17.578125
1510188668.7376082,-115.72265625,26.85546875,20.99609375,-253.90625,-31.73828125
1510188668.7415144,76.66015625,18.06640625,22.4609375,390.625,-19.53125
1510188668.7454207,88.8671875,16.6015625,25.87890625,529.296875,-56.640625
1510188668.749327,-134.27734375,18.5546875,27.34375,-111.81640625,-44.43359375
1510188668.7532332,-163.0859375,21.484375,23.92578125,-301.26953125,-28.80859375
1510188668.770305,32.71484375,24.90234375,22.94921875,241.69921875,-9.27734375
1510188668.7742112,124.51171875,22.94921875,23.4375,589.35546875,17.578125
1510188668.7781174,-98.6328125,20.01953125,25.390625,58.59375,24.90234375
1510188668.7820237,-216.796875,16.11328125,26.85546875,-351.07421875,-15.625
1510188668.78593,-57.12890625,14.6484375,20.99609375,42.48046875,29.78515625
1510188668.7898362,100.5859375,13.18359375,21.484375,534.66796875,72.265625
1510188668.7937424,-47.36328125,17.578125,27.83203125,204.1015625,14.16015625
1510188668.7976487,-235.83984375,22.94921875,24.90234375,-350.5859375,-20.99609375
1510188668.801555,-108.3984375,23.92578125,19.53125,-124.0234375,-21.97265625
1510188668.8054612,84.9609375,24.4140625,20.01953125,434.08203125,11.23046875
1510188668.8093674,21.97265625,27.34375,21.97265625,367.67578125,37.109375
1510188668.8132737,-200.1953125,26.3671875,26.85546875,-254.8828125,11.71875
1510188668.815126,-151.85546875,21.97265625,24.4140625,-263.671875,-9.765625
1510188668.8190322,55.6640625,20.99609375,16.6015625,282.2265625,-10.7421875
1510188668.8229384,98.14453125,20.99609375,17.08984375,485.83984375,3.90625
1510188668.8268447,-113.76953125,22.94921875,19.53125,-108.3984375,29.296875
1510188668.830751,-157.71484375,23.92578125,17.578125,-384.765625,6.8359375
1510188668.8346572,24.90234375,24.90234375,16.11328125,83.0078125,-6.8359375
1510188668.8385634,143.5546875,23.92578125,14.6484375,481.4453125,23.92578125
1510188668.8424697,-30.76171875,23.92578125,17.08984375,37.109375,30.2734375
1510188668.846376,-171.38671875,23.92578125,20.5078125,-398.92578125,1.46484375
1510188668.8502822,-28.3203125,22.4609375,20.5078125,-81.0546875,-15.13671875
1510188668.8541884,147.94921875,22.4609375,19.04296875,454.58984375,-15.13671875
1510188668.8580947,4.39453125,18.06640625,24.4140625,253.90625,-8.30078125
1510188668.8601637,-207.03125,20.99609375,28.3203125,-372.0703125,-24.90234375
1510188668.86407,-106.93359375,25.390625,23.92578125,-217.28515625,-17.08984375
1510188668.8679762,101.5625,22.94921875,19.04296875,383.30078125,2.44140625
1510188668.8718824,68.84765625,21.484375,20.5078125,385.25390625,-6.34765625
1510188668.8757887,-197.75390625,22.94921875,21.97265625,-288.0859375,-6.8359375
1510188668.879695,-204.1015625,21.97265625,20.5078125,-373.53515625,-2.44140625
1510188668.8836012,-12.20703125,21.97265625,17.578125,196.77734375,41.50390625
1510188668.8875074,25.87890625,25.390625,17.578125,472.16796875,81.0546875
1510188668.8914137,-214.35546875,26.85546875,24.90234375,-149.4140625,19.53125
1510188668.89532,-295.41015625,36.62109375,22.4609375,-501.953125,4.8828125
1510188668.8992262,-136.23046875,43.45703125,21.484375,20.01953125,54.6875
1510188668.9031324,-32.71484375,39.55078125,21.484375,471.19140625,57.12890625
1510188668.90519,-210.44921875,36.62109375,20.5078125,2.9296875,60.05859375
1510188668.9090962,-345.21484375,39.0625,18.5546875,-517.08984375,18.5546875
1510188668.9130025,-198.73046875,43.45703125,16.11328125,-174.31640625,19.53125
1510188668.9169087,-21.484375,39.55078125,13.18359375,404.296875,44.921875
1510188668.920815,-141.6015625,39.0625,12.6953125,192.3828125,30.2734375
1510188668.9247212,-356.4453125,36.62109375,18.06640625,-429.19921875,1.46484375
1510188668.9286275,-250.48828125,36.62109375,18.06640625,-305.17578125,-18.06640625
1510188668.9325337,-63.96484375,44.43359375,16.6015625,267.578125,5.37109375
1510188668.93644,-90.33203125,45.8984375,18.5546875,305.17578125,5.37109375
1510188668.9403462,-299.8046875,48.33984375,22.94921875,-333.0078125,-0.48828125
1510188668.9442525,-288.57421875,53.22265625,21.484375,-429.6875,7.32421875
1510188668.9481587,-77.1484375,54.19921875,13.671875,72.265625,18.5546875
1510188668.9502432,9.27734375,54.19921875,10.7421875,350.09765625,31.73828125
1510188668.9541495,-214.35546875,55.17578125,12.6953125,-176.7578125,20.5078125
1510188668.9580557,-314.453125,53.22265625,10.7421875,-517.578125,-3.90625
1510188668.961962,-129.39453125,51.7578125,9.765625,-85.9375,11.71875
1510188668.9658682,23.92578125,51.7578125,10.25390625,365.234375,54.6875
1510188668.9697745,-142.08984375,48.33984375,13.671875,-30.2734375,41.50390625
1510188668.9736807,-301.26953125,51.7578125,15.13671875,-558.59375,30.2734375
1510188668.977587,-164.0625,53.22265625,17.578125,-297.8515625,-10.25390625
1510188668.9814932,28.80859375,51.7578125,17.08984375,260.25390625,-23.92578125
1510188668.9853995,-60.546875,50.29296875,13.18359375,184.5703125,2.9296875
1510188668.9893057,-276.3671875,47.36328125,13.18359375,-431.640625,-46.875
1510188668.993212,-192.3828125,48.828125,10.25390625,-367.1875,-8.7890625
1510188668.995254,17.578125,48.828125,9.27734375,236.81640625,38.0859375
1510188668.9991603,30.76171875,48.828125,12.6953125,379.39453125,17.578125
1510188669.0030665,-197.265625,43.9453125,17.578125,-266.6015625,-6.34765625
1510188669.0069728,-211.9140625,41.015625,19.04296875,-451.66015625,-8.30078125
1510188669.010879,-7.32421875,37.59765625,16.6015625,109.86328125,14.6484375
1510188669.0147853,83.984375,29.296875,14.16015625,460.44921875,26.3671875
1510188669.0186915,-117.1875,31.73828125,18.5546875,-65.4296875,24.4140625
1510188669.0225978,-214.35546875,36.62109375,23.4375,-504.39453125,-29.78515625
1510188669.026504,-41.015625,38.0859375,13.671875,-95.703125,-11.23046875
1510188669.0304103,120.1171875,33.203125,7.8125,486.81640625,49.8046875
1510188669.0343165,-23.92578125,24.4140625,16.11328125,155.2734375,21.97265625
1510188669.0382228,-199.21875,24.4140625,19.04296875,-430.6640625,1.953125
1510188669.0402858,-71.2890625,22.4609375,19.04296875,-195.3125,-12.6953125
1510188669.044192,118.65234375,19.53125,21.484375,401.3671875,-1.953125
1510188669.0480983,59.5703125,31.73828125,24.90234375,332.03125,16.11328125
1510188669.0520046,-161.1328125,39.55078125,24.4140625,-333.49609375,-19.04296875
1510188669.0559108,-101.5625,32.2265625,21.484375,-306.640625,-7.32421875
1510188669.059817,112.79296875,23.92578125,17.08984375,286.1328125,32.2265625
1510188669.0637233,130.37109375,23.4375,17.578125,442.87109375,4.8828125
1510188669.0676296,-99.609375,26.85546875,21.97265625,-208.49609375,-25.390625
1510188669.0715358,-139.16015625,27.83203125,20.99609375,-401.85546875,-5.859375
1510188669.075442,53.7109375,24.4140625,21.97265625,145.5078125,20.99609375
1510188669.0793483,167.96875,21.484375,22.94921875,524.4140625,36.62109375
1510188669.0832546,-32.71484375,20.5078125,28.3203125,17.08984375,-9.765625
1510188669.0853198,-167.48046875,18.5546875,26.3671875,-429.6875,-11.71875
1510188669.089226,-14.16015625,16.6015625,21.484375,-53.7109375,15.13671875
1510188669.0931323,152.34375,18.5546875,20.01953125,451.171875,29.78515625
1510188669.0970385,24.4140625,20.99609375,22.4609375,169.43359375,46.875
1510188669.1009448,-168.9453125,19.53125,25.390625,-408.203125,14.6484375
1510188669.104851,-61.03515625,18.06640625,26.3671875,-215.8203125,6.8359375
1510188669.1087573,125.0,20.99609375,22.4609375,341.30859375,56.15234375
1510188669.1126635,82.51953125,31.25,35.15625,347.65625,70.80078125
1510188669.1165698,-152.83203125,27.34375,35.15625,-276.85546875,25.390625
1510188669.120476,-133.7890625,15.625,20.5078125,-356.93359375,-5.859375
1510188669.1243823,81.0546875,20.99609375,21.97265625,199.70703125,23.92578125
1510188669.1282885,129.8828125,24.90234375,20.99609375,467.28515625,58.10546875
1510188669.1453607,-89.84375,21.484375,24.4140625,-114.2578125,27.34375
1510188669.149267,-154.296875,23.92578125,26.3671875,-426.7578125,-24.4140625
1510188669.1531732,24.4140625,31.25,23.92578125,49.31640625,-2.44140625
1510188669.1570795,145.01953125,29.78515625,21.484375,494.62890625,24.90234375
1510188669.1609857,-42.48046875,25.390625,27.83203125,62.01171875,19.04296875
1510188669.164892,-185.546875,26.3671875,27.34375,-453.125,-13.18359375
1510188669.1687982,-41.9921875,37.109375,20.01953125,-146.484375,-15.13671875
1510188669.1727045,130.859375,45.8984375,20.01953125,432.12890625,2.44140625
1510188669.1766107,18.5546875,43.9453125,26.3671875,239.2578125,6.34765625
1510188669.180517,-188.96484375,43.9453125,26.3671875,-416.50390625,-13.18359375
1510188669.1844232,-91.796875,44.43359375,21.484375,-295.41015625,-4.8828125
1510188669.1883295,111.81640625,39.55078125,18.06640625,345.703125,32.71484375
1510188669.1898923,94.23828125,36.1328125,23.4375,402.34375,-10.7421875
1510188669.1937985,-136.23046875,32.71484375,29.78515625,-258.30078125,-34.1796875
1510188669.1977048,-125.9765625,32.2265625,25.390625,-364.2578125,-34.66796875
1510188669.201611,78.125,29.296875,20.01953125,198.73046875,-10.7421875
1510188669.2055173,139.6484375,25.87890625,20.5078125,498.046875,-0.9765625
1510188669.2094235,-80.56640625,29.296875,25.390625,-83.49609375,-33.203125
1510188669.2133298,-165.0390625,28.80859375,23.92578125,-451.66015625,-47.8515625
1510188669.217236,8.30078125,31.73828125,18.06640625,23.4375,-5.859375
1510188669.2211423,151.3671875,28.3203125,20.5078125,493.65234375,-0.9765625
1510188669.2250485,-24.90234375,26.3671875,23.92578125,36.62109375,-34.1796875
1510188669.2289548,-180.17578125,29.78515625,21.97265625,-478.515625,-44.43359375
1510188669.232861,-33.203125,24.4140625,20.01953125,-136.23046875,-51.7578125
1510188669.2349257,134.27734375,17.08984375,16.11328125,434.5703125,7.8125
1510188669.238832,32.71484375,20.01953125,18.06640625,267.08984375,58.10546875
1510188669.2427382,-178.7109375,23.92578125,22.4609375,-371.09375,28.3203125
1510188669.2466445,-92.7734375,20.5078125,20.5078125,-272.94921875,26.3671875
1510188669.2505507,109.375,18.5546875,22.94921875,309.08203125,21.97265625
1510188669.254457,94.7265625,17.578125,27.34375,407.71484375,11.23046875
1510188669.2583632,-141.6015625,15.625,28.80859375,-235.3515625,32.71484375
1510188669.2622695,-147.94921875,15.625,27.83203125,-397.94921875,12.6953125
1510188669.2661757,46.38671875,14.6484375,22.94921875,130.859375,-8.30078125
1510188669.270082,127.44140625,17.08984375,17.08984375,450.1953125,-4.39453125
1510188669.2739882,-73.2421875,22.94921875,18.06640625,-46.875,-23.92578125
1510188669.2778945,-182.6171875,20.99609375,23.4375,-431.15234375,-29.296875
1510188669.2799556,-16.6015625,22.4609375,21.484375,-28.80859375,22.94921875
1510188669.2838619,135.7421875,23.4375,19.04296875,483.88671875,42.96875
1510188669.2877681,-19.04296875,18.06640625,27.83203125,139.6484375,18.5546875
1510188669.2916744,-206.0546875,15.13671875,32.2265625,-437.5,-20.99609375
1510188669.2955806,-89.84375,16.6015625,27.34375,-206.54296875,-17.578125
1510188669.2994869,102.5390625,14.16015625,20.99609375,378.41796875,41.015625
1510188669.3033931,34.66796875,16.6015625,21.97265625,288.0859375,68.84765625
1510188669.3072994,-175.78125,17.08984375,26.85546875,-355.95703125,33.203125
1510188669.3112056,-105.95703125,12.6953125,24.90234375,-344.7265625,33.69140625
1510188669.3151119,106.4453125,20.01953125,18.5546875,235.83984375,69.82421875
1510188669.3190181,119.62890625,21.484375,21.484375,453.61328125,91.796875
1510188669.3229244,-121.58203125,16.11328125,28.80859375,-187.98828125,55.17578125
1510188669.3254907,-156.73828125,10.7421875,27.83203125,-435.05859375,8.30078125
1510188669.329397,35.64453125,10.7421875,22.4609375,111.81640625,8.7890625
1510188669.3333032,143.5546875,6.34765625,20.99609375,505.37109375,-4.39453125
1510188669.3372095,-51.7578125,3.90625,26.3671875,-6.8359375,-10.25390625
1510188669.3411157,-177.734375,11.23046875,27.34375,-447.265625,-19.53125
1510188669.345022,-19.53125,15.13671875,20.01953125,-49.8046875,-9.765625
1510188669.3489282,134.27734375,14.6484375,18.5546875,471.6796875,16.11328125
1510188669.3528345,-8.7890625,11.23046875,25.87890625,157.71484375,24.90234375
1510188669.3567407,-186.5234375,24.90234375,23.4375,-445.3125,-6.34765625
1510188669.360647,-78.61328125,28.3203125,21.484375,-182.6171875,14.6484375
1510188669.3645532,99.12109375,4.8828125,34.1796875,430.6640625,15.625
1510188669.3684595,50.78125,-6.8359375,40.0390625,370.60546875,-23.4375
1510188669.3700404,-166.50390625,1.46484375,33.69140625,-284.66796875,-22.94921875
1510188669.3739467,-125.0,1.46484375,31.25,-289.0625,-8.30078125
1510188669.377853,71.77734375,-9.765625,33.69140625,295.41015625,8.30078125
1510188669.3817592,122.0703125,-14.16015625,38.57421875,522.94921875,-11.23046875
1510188669.3856654,-87.40234375,-6.8359375,39.55078125,-75.1953125,-39.0625
1510188669.3895717,-148.92578125,-2.44140625,30.76171875,-359.86328125,-38.0859375
1510188669.393478,30.2734375,-8.7890625,34.1796875,136.23046875,-48.33984375
1510188669.3973842,143.5546875,-8.30078125,37.109375,536.1328125,-64.94140625
1510188669.4012904,-38.57421875,-5.37109375,41.50390625,104.00390625,-1.953125
1510188669.4051967,-170.41015625,-10.25390625,46.875,-305.6640625,14.16015625
1510188669.409103,-20.01953125,-9.765625,44.43359375,9.765625,-16.11328125
1510188669.4130092,145.99609375,-3.41796875,38.0859375,527.83203125,-4.8828125
1510188669.4150517,26.85546875,2.9296875,33.203125,291.015625,-39.55078125
1510188669.418958,-166.50390625,2.9296875,37.59765625,-336.42578125,-80.56640625
1510188669.4228642,-58.59375,-1.953125,40.0390625,-188.96484375,-42.96875
1510188669.4267704,139.6484375,2.9296875,35.15625,406.25,10.7421875
1510188669.4306767,110.83984375,1.46484375,35.15625,436.5234375,8.7890625
1510188669.434583,-120.60546875,3.41796875,36.1328125,-227.5390625,5.859375
1510188669.4384892,-123.046875,9.765625,33.69140625,-349.12109375,-26.3671875
1510188669.4423954,74.21875,10.25390625,33.69140625,180.6640625,-23.92578125
1510188669.4463017,150.87890625,9.765625,33.69140625,520.01953125,-2.9296875
1510188669.450208,-62.01171875,13.671875,34.1796875,-33.69140625,-52.24609375
1510188669.4541142,-132.8125,14.16015625,36.62109375,-429.19921875,-27.83203125
1510188669.4580204,47.8515625,17.08984375,32.71484375,27.34375,16.6015625
1510188669.460086,186.03515625,20.5078125,31.73828125,534.1796875,11.71875
1510188669.4639924,17.08984375,20.5078125,36.62109375,118.1640625,11.23046875
1510188669.4678986,-143.06640625,22.94921875,36.62109375,-424.31640625,-14.6484375
1510188669.4718049,-1.953125,25.87890625,33.69140625,-113.76953125,-37.59765625
1510188669.475711,171.38671875,24.90234375,31.73828125,474.609375,-13.18359375
1510188669.4796174,63.96484375,26.3671875,32.71484375,299.31640625,-6.34765625
1510188669.4835236,-147.4609375,26.3671875,33.203125,-402.34375,-52.24609375
1510188669.4874299,-63.4765625,23.92578125,29.296875,-295.41015625,-22.94921875
1510188669.491336,137.6953125,27.83203125,30.76171875,386.71875,26.3671875
1510188669.4952424,128.41796875,32.2265625,31.25,490.234375,11.71875
1510188669.4991486,-101.5625,36.1328125,28.3203125,-189.94140625,-2.44140625
1510188669.5030549,-107.91015625,41.015625,26.3671875,-340.8203125,-15.625
1510188669.5056162,74.70703125,39.0625,27.34375,230.46875,1.953125
1510188669.5095224,146.97265625,37.109375,30.2734375,547.8515625,-8.7890625
1510188669.5134287,-49.31640625,35.15625,32.2265625,-4.39453125,-16.11328125
1510188669.517335,-138.671875,34.1796875,30.2734375,-360.3515625,6.34765625
1510188669.5212412,34.66796875,36.62109375,28.3203125,95.703125,28.3203125
1510188669.5251474,181.640625,34.66796875,29.78515625,584.9609375,22.4609375
1510188669.5290537,25.390625,37.59765625,31.25,191.89453125,27.34375
1510188669.53296,-142.08984375,40.52734375,29.78515625,-355.46875,42.96875
1510188669.5368662,-19.04296875,38.0859375,25.87890625,-94.23828125,39.0625
1510188669.5407724,153.80859375,42.96875,23.4375,470.703125,48.828125
1510188669.5446787,87.890625,52.24609375,26.85546875,376.46484375,56.15234375
1510188669.548585,-90.33203125,56.640625,29.78515625,-282.71484375,23.4375
1510188669.5651598,-10.7421875,56.15234375,25.390625,-260.25390625,14.6484375
1510188669.569066,188.96484375,56.640625,24.4140625,307.12890625,32.71484375
1510188669.5729723,216.796875,58.10546875,24.90234375,479.4921875,54.19921875
1510188669.5768785,7.32421875,61.03515625,25.87890625,-72.265625,39.55078125
1510188669.5807848,-32.2265625,57.12890625,24.90234375,-265.13671875,2.44140625
1510188669.584691,134.765625,54.6875,22.4609375,202.1484375,41.50390625
1510188669.5885973,237.79296875,59.5703125,23.92578125,539.55078125,79.58984375
1510188669.5925035,45.41015625,63.4765625,24.90234375,45.41015625,12.20703125
1510188669.5964098,-82.03125,57.6171875,27.34375,-365.234375,-28.3203125
1510188669.600316,71.2890625,49.31640625,28.80859375,-33.203125,-10.25390625
1510188669.6042223,233.88671875,51.26953125,26.85546875,486.81640625,0.9765625
1510188669.6081285,96.19140625,59.08203125,26.85546875,242.67578125,9.27734375
1510188669.6101916,-99.609375,55.6640625,25.390625,-377.44140625,1.953125
1510188669.6140978,-6.34765625,49.31640625,22.94921875,-191.89453125,-24.4140625
1510188669.618004,167.96875,46.875,19.53125,410.64453125,-22.4609375
1510188669.6219103,108.3984375,42.96875,24.4140625,385.25390625,7.32421875
1510188669.6258166,-104.00390625,42.48046875,31.25,-292.96875,-34.1796875
1510188669.6297228,-75.1953125,44.43359375,27.83203125,-313.96484375,-41.015625
1510188669.633629,102.5390625,46.38671875,21.484375,286.1328125,16.11328125
1510188669.6375353,149.90234375,44.921875,23.4375,534.1796875,4.39453125
1510188669.6414416,-73.73046875,35.15625,33.69140625,-92.28515625,-17.578125
1510188669.6453478,-143.5546875,39.0625,30.76171875,-415.52734375,-28.80859375
1510188669.649254,0.48828125,47.8515625,23.92578125,103.02734375,-37.109375
1510188669.6531603,113.28125,38.0859375,28.3203125,542.48046875,-23.4375
1510188669.6552238,-36.1328125,31.73828125,30.76171875,44.921875,-33.69140625
1510188669.65913,-163.57421875,36.1328125,28.3203125,-423.828125,-40.0390625
1510188669.6630363,-29.78515625,36.1328125,27.83203125,-31.73828125,-14.16015625
1510188669.6669426,139.16015625,32.71484375,29.78515625,525.87890625,14.16015625
1510188669.6708488,46.875,31.73828125,34.1796875,283.69140625,-11.23046875
1510188669.674755,-155.2734375,30.76171875,38.57421875,-332.51953125,-55.6640625
1510188669.6786613,-76.66015625,33.203125,34.1796875,-201.66015625,-87.890625
1510188669.6825676,101.07421875,32.71484375,29.296875,392.08984375,-94.7265625
1510188669.6864738,48.828125,29.78515625,34.66796875,385.7421875,-89.84375
1510188669.69038,-186.03515625,31.73828125,30.76171875,-280.2734375,-78.61328125
1510188669.6942863,-178.22265625,31.73828125,19.04296875,-298.33984375,-88.37890625
1510188669.6981926,23.4375,23.92578125,19.53125,258.30078125,-77.63671875
1510188669.700257,106.4453125,22.4609375,25.87890625,521.97265625,-20.5078125
1510188669.7041633,-107.91015625,30.76171875,26.3671875,-50.78125,4.39453125
1510188669.7080696,-185.05859375,35.64453125,24.4140625,-388.671875,-20.5078125
1510188669.7119758,-13.671875,32.71484375,27.34375,71.2890625,-54.6875
1510188669.715882,104.00390625,33.203125,28.3203125,525.390625,-38.57421875
1510188669.7197883,-67.3828125,38.57421875,31.25,79.1015625,-45.41015625
1510188669.7236946,-224.609375,33.69140625,34.66796875,-426.7578125,-61.5234375
1510188669.7276008,-73.2421875,28.3203125,29.78515625,-85.44921875,-46.38671875
1510188669.731507,90.33203125,35.15625,20.99609375,436.03515625,-34.1796875
1510188669.7354133,-52.734375,42.48046875,22.4609375,270.01953125,-14.16015625
1510188669.7393196,-272.4609375,41.50390625,28.3203125,-320.3125,-48.828125
1510188669.7432258,-208.984375,41.9921875,24.4140625,-236.328125,-82.03125
1510188669.745288,-40.52734375,39.55078125,19.53125,369.140625,-71.2890625
1510188669.7491941,-53.7109375,36.1328125,18.5546875,487.79296875,-79.58984375
1510188669.7531004,-289.0625,32.71484375,24.90234375,-153.3203125,-94.23828125
1510188669.7570066,-299.31640625,29.78515625,25.390625,-330.078125,-69.82421875
1510188669.760913,-101.07421875,35.64453125,18.06640625,203.125,5.37109375
1510188669.7648191,-20.5078125,32.71484375,24.4140625,544.43359375,27.83203125
1510188669.7687254,-234.86328125,27.83203125,32.71484375,-10.25390625,-36.62109375
1510188669.7726316,-323.2421875,26.3671875,31.25,-410.15625,-89.35546875
1510188669.776538,-136.71875,20.01953125,22.94921875,28.80859375,-73.73046875
1510188669.7804441,9.765625,11.23046875,18.06640625,556.15234375,-27.34375
1510188669.7843504,-143.5546875,7.8125,22.94921875,165.52734375,-66.89453125
1510188669.7882566,-300.29296875,8.7890625,25.390625,-392.578125,-108.88671875
1510188669.79032,-178.7109375,9.27734375,19.04296875,-115.72265625,-64.94140625
1510188669.7942262,-14.16015625,5.859375,15.625,479.98046875,-33.203125
1510188669.7981324,-92.7734375,0.9765625,25.87890625,365.234375,-36.1328125
1510188669.8020387,-277.34375,-1.46484375,32.2265625,-299.8046875,-43.45703125
1510188669.805945,-191.89453125,7.8125,21.484375,-233.88671875,-46.875
1510188669.8098512,5.859375,16.11328125,12.6953125,390.13671875,8.7890625
1510188669.8137574,33.69140625,18.5546875,14.16015625,510.7421875,9.27734375
1510188669.8176637,-168.9453125,20.01953125,18.06640625,-177.24609375,-13.671875
1510188669.82157,-188.96484375,23.92578125,14.16015625,-305.17578125,16.6015625
1510188669.8254762,7.8125,26.85546875,10.25390625,247.55859375,62.5
1510188669.8293824,111.328125,23.4375,8.7890625,519.04296875,73.73046875
1510188669.8332887,-75.68359375,20.99609375,17.578125,-35.64453125,33.203125
1510188669.8353498,-169.921875,20.01953125,21.484375,-415.0390625,3.90625
1510188669.839256,-3.41796875,19.53125,17.08984375,-15.13671875,21.484375
1510188669.8431623,159.1796875,19.53125,16.6015625,469.23828125,34.1796875
1510188669.8470685,22.4609375,15.13671875,19.53125,127.44140625,20.5078125
1510188669.8509748,-150.390625,16.6015625,16.6015625,-461.42578125,28.3203125
1510188669.854881,-30.2734375,20.5078125,14.16015625,-221.19140625,46.38671875
1510188669.8587873,153.3203125,19.53125,16.6015625,307.6171875,35.64453125
1510188669.8626935,102.05078125,20.5078125,18.06640625,250.9765625,36.62109375
1510188669.8665998,-91.30859375,22.4609375,22.4609375,-337.890625,38.0859375
1510188669.870506,-52.24609375,24.4140625,20.99609375,-371.58203125,25.87890625
1510188669.8744123,128.41796875,18.5546875,17.578125,214.35546875,61.03515625
1510188669.8783185,164.0625,14.16015625,22.4609375,446.2890625,72.265625
1510188669.895393,-68.359375,12.20703125,28.3203125,-186.03515625,51.7578125
1510188669.8992991,-118.1640625,12.6953125,24.4140625,-478.515625,32.71484375
1510188669.9032054,52.734375,12.20703125,16.11328125,1.46484375,51.7578125
1510188669.9071116,151.3671875,10.25390625,15.625,437.98828125,68.84765625
1510188669.911018,-29.296875,6.34765625,20.99609375,-40.0390625,49.31640625
1510188669.9149241,-156.73828125,8.7890625,23.92578125,-520.5078125,-7.32421875
1510188669.9188304,-11.23046875,18.06640625,19.53125,-168.9453125,-47.36328125
1510188669.9227366,155.2734375,18.06640625,16.6015625,407.71484375,-1.953125
1510188669.926643,37.109375,18.5546875,24.90234375,187.5,48.33984375
1510188669.9305491,-157.71484375,20.5078125,27.83203125,-453.61328125,50.29296875
1510188669.9344554,-55.6640625,21.97265625,25.87890625,-282.71484375,10.7421875
1510188669.9383616,123.046875,23.92578125,24.4140625,304.19921875,-20.5078125
1510188669.939945,85.9375,22.94921875,24.90234375,284.1796875,-13.671875
1510188669.9438512,-138.671875,23.4375,26.85546875,-405.2734375,-16.11328125
1510188669.9477575,-123.046875,26.3671875,22.94921875,-434.08203125,-17.08984375
1510188669.9516637,62.01171875,28.3203125,19.53125,160.15625,45.8984375
1510188669.95557,92.7734375,33.203125,22.4609375,375.0,67.3828125
1510188669.9594762,-130.859375,37.59765625,24.4140625,-212.40234375,24.4140625
1510188669.9633825,-202.63671875,36.1328125,19.53125,-513.671875,0.48828125
1510188669.9672887,-27.34375,38.57421875,15.625,-18.5546875,70.3125
1510188669.971195,105.46875,41.015625,16.11328125,432.6171875,88.37890625
1510188669.9751012,-73.73046875,30.76171875,21.97265625,-67.3828125,18.06640625
1510188669.9790075,-215.33203125,24.4140625,19.53125,-530.76171875,-13.671875
1510188669.9829137,-71.77734375,25.87890625,16.6015625,-133.7890625,-1.46484375
1510188669.9849582,93.75,25.87890625,19.53125,380.37109375,48.33984375
1510188669.9888644,0.0,23.4375,21.484375,164.0625,54.6875
1510188669.9927707,-198.73046875,28.3203125,20.01953125,-399.4140625,31.73828125
1510188669.996677,-111.328125,33.69140625,17.08984375,-230.95703125,6.34765625
1510188670.0005832,101.07421875,30.2734375,16.11328125,316.40625,25.87890625
1510188670.0044894,84.47265625,24.4140625,19.04296875,354.98046875,61.5234375
1510188670.0083957,-152.34375,18.5546875,23.92578125,-270.5078125,9.27734375
1510188670.012302,-142.08984375,15.13671875,21.97265625,-327.63671875,-23.4375
1510188670.0162082,66.89453125,8.7890625,18.5546875,167.48046875,11.71875
1510188670.0201144,122.55859375,8.7890625,19.53125,448.73046875,55.6640625
1510188670.0240207,-95.703125,17.08984375,21.97265625,27.34375,56.15234375
1510188670.027927,-181.640625,15.13671875,21.484375,-323.2421875,-0.9765625
1510188670.0300083,-28.3203125,9.27734375,19.53125,20.01953125,-27.34375
1510188670.0339146,105.95703125,12.20703125,16.6015625,517.08984375,54.19921875
1510188670.0378208,-51.26953125,15.625,20.01953125,177.734375,71.2890625
1510188670.041727,-214.35546875,8.7890625,24.4140625,-321.77734375,28.80859375
1510188670.0456333,-91.796875,23.4375,14.16015625,-87.40234375,17.578125
1510188670.0495396,35.64453125,42.48046875,2.44140625,192.87109375,84.47265625
1510188670.0534458,-61.03515625,24.90234375,9.765625,19.04296875,85.9375
1510188670.057352,-247.0703125,16.6015625,15.13671875,-612.3046875,-58.10546875
1510188670.0612583,-160.15625,21.484375,12.20703125,-524.4140625,-84.47265625
1510188670.0651646,46.875,19.04296875,10.25390625,242.67578125,19.04296875
1510188670.0690708,30.2734375,11.71875,16.6015625,492.1875,68.84765625
1510188670.072977,-197.75390625,13.18359375,27.34375,-167.96875,9.27734375
1510188670.0755239,-224.12109375,17.08984375,23.92578125,-398.4375,-3.90625
1510188670.07943,-36.62109375,20.01953125,12.6953125,145.01953125,27.83203125
1510188670.0833364,60.546875,18.5546875,16.6015625,507.32421875,11.71875
1510188670.0872426,-133.30078125,14.16015625,24.4140625,-12.20703125,-18.5546875
1510188670.0911489,-229.4921875,12.20703125,24.4140625,-351.07421875,-42.48046875
1510188670.095055,-75.68359375,10.25390625,20.01953125,85.9375,8.30078125
1510188670.0989614,77.1484375,11.71875,17.08984375,535.15625,45.41015625
1510188670.1028676,-64.453125,12.20703125,21.484375,114.74609375,10.25390625
1510188670.1067739,-235.3515625,13.671875,22.94921875,-469.7265625,-8.7890625
1510188670.11068,-111.328125,8.7890625,19.53125,-133.7890625,20.5078125
1510188670.1145864,67.87109375,5.859375,20.5078125,457.03125,45.8984375
1510188670.1184926,4.8828125,11.71875,25.390625,314.94140625,53.22265625
1510188670.1210651,-207.03125,11.23046875,27.83203125,-355.46875,10.7421875
1510188670.1249714,-151.3671875,15.13671875,23.92578125,-328.125,3.90625
1510188670.1288776,42.48046875,15.625,20.01953125,260.25390625,2.9296875
1510188670.132784,71.77734375,18.06640625,21.97265625,441.89453125,4.8828125
1510188670.1366901,-135.7421875,25.390625,26.3671875,-165.52734375,48.33984375
1510188670.1405964,-163.57421875,25.87890625,28.80859375,-420.41015625,3.41796875
1510188670.1445026,22.94921875,24.4140625,26.85546875,58.10546875,-13.671875
1510188670.148409,135.7421875,25.390625,25.87890625,426.26953125,-20.01953125
1510188670.1523151,-43.45703125,28.3203125,25.87890625,-50.78125,24.90234375
1510188670.1562214,-174.31640625,24.90234375,27.34375,-468.75,6.34765625
1510188670.1601276,-29.296875,23.92578125,27.83203125,-133.7890625,-26.85546875
1510188670.164034,131.34765625,31.73828125,27.83203125,388.671875,20.99609375
1510188670.165084,2.9296875,36.1328125,32.2265625,124.51171875,18.5546875
1510188670.1689901,-190.4296875,29.78515625,32.2265625,-503.90625,-18.06640625
1510188670.1728964,-77.63671875,28.3203125,28.80859375,-325.1953125,-25.390625
1510188670.1768026,112.79296875,27.34375,25.390625,262.20703125,16.6015625
1510188670.180709,68.84765625,23.92578125,26.3671875,246.58203125,51.26953125
1510188670.1846151,-155.2734375,18.06640625,34.66796875,-367.67578125,0.9765625
1510188670.1885214,-119.140625,9.27734375,33.69140625,-347.16796875,-41.9921875
1510188670.1924276,92.28515625,14.16015625,26.85546875,223.6328125,-9.27734375
1510188670.196334,140.13671875,22.4609375,26.85546875,475.09765625,34.1796875
1510188670.2002401,-81.0546875,20.01953125,32.2265625,-100.09765625,24.90234375
1510188670.2041464,-138.18359375,17.578125,31.25,-413.57421875,13.671875
1510188670.2080526,41.015625,19.53125,23.92578125,89.35546875,38.57421875
1510188670.210116,158.69140625,23.92578125,23.4375,551.26953125,46.38671875
1510188670.2140222,-14.16015625,23.92578125,29.296875,73.73046875,27.34375
1510188670.2179284,-166.9921875,23.92578125,29.78515625,-441.40625,-9.765625
1510188670.2218347,-26.3671875,28.3203125,22.4609375,-81.0546875,1.46484375
1510188670.225741,144.53125,28.3203125,21.97265625,481.93359375,17.578125
1510188670.2296472,20.99609375,27.83203125,27.34375,274.4140625,39.0625
1510188670.2335534,-191.40625,29.296875,29.78515625,-394.53125,-16.6015625
1510188670.2374597,-106.4453125,29.78515625,25.87890625,-259.27734375,-47.8515625
1510188670.241366,83.49609375,25.390625,25.390625,414.55078125,21.484375
1510188670.2452722,54.6875,19.04296875,29.296875,461.42578125,7.32421875
1510188670.2491784,-169.921875,20.99609375,29.78515625,-218.26171875,-16.6015625
1510188670.2530847,-150.390625,24.4140625,23.92578125,-313.4765625,12.20703125
