timestamp,TP9,AF7,AF8,TP10,Right AUX
1508291858094.2227,4.8828125,24.90234375,23.92578125,27.34375,6.8359375
1508291858098.129,12.6953125,29.296875,25.390625,21.484375,19.53125
1508291858102.0352,12.6953125,30.76171875,15.625,23.4375,-25.390625
1508291858105.9414,2.44140625,21.97265625,17.578125,24.90234375,16.11328125
1508291858109.8477,-3.41796875,22.4609375,24.4140625,32.2265625,56.15234375
1508291858113.754,11.23046875,22.4609375,21.97265625,38.57421875,24.90234375
1508291858117.6602,9.765625,31.25,13.671875,22.94921875,28.3203125
1508291858121.5664,-0.9765625,30.2734375,3.90625,8.30078125,1.46484375
1508291858125.4727,9.27734375,17.578125,8.7890625,14.6484375,-25.390625
1508291858129.379,17.08984375,21.484375,29.296875,33.203125,28.80859375
1508291858133.2852,10.25390625,23.4375,23.92578125,35.64453125,27.34375
1508291858137.1914,-3.41796875,24.90234375,13.18359375,17.578125,12.20703125
1508291858139.2546,-0.9765625,24.90234375,10.7421875,13.671875,48.33984375
1508291858143.161,6.8359375,23.92578125,16.11328125,30.76171875,47.8515625
1508291858147.0671,16.6015625,23.92578125,12.20703125,32.71484375,27.34375
1508291858150.9734,17.08984375,25.390625,8.7890625,12.6953125,28.80859375
1508291858154.8796,22.4609375,28.80859375,20.01953125,17.08984375,22.4609375
1508291858158.786,33.203125,22.94921875,27.83203125,29.296875,44.921875
1508291858162.6921,17.578125,24.4140625,24.90234375,21.484375,33.203125
1508291858166.5984,-0.9765625,23.4375,13.671875,21.484375,-7.32421875
1508291858170.5046,-1.953125,21.97265625,14.6484375,21.484375,39.55078125
1508291858174.411,25.390625,30.2734375,14.6484375,22.94921875,50.78125
1508291858178.3171,28.3203125,29.78515625,11.71875,22.94921875,48.33984375
1508291858182.2234,19.53125,26.3671875,7.32421875,13.671875,43.45703125
1508291858185.7864,22.94921875,24.90234375,12.6953125,14.6484375,41.9921875
1508291858189.6926,24.90234375,21.484375,16.11328125,31.25,33.69140625
1508291858193.5989,16.11328125,20.99609375,10.7421875,33.69140625,42.96875
1508291858197.5051,3.90625,21.484375,24.90234375,26.3671875,71.2890625
1508291858201.4114,10.25390625,28.80859375,16.6015625,6.8359375,15.13671875
1508291858205.3176,21.484375,32.71484375,7.8125,9.27734375,25.87890625
1508291858209.2239,20.01953125,27.34375,1.46484375,14.6484375,38.57421875
1508291858213.1301,15.13671875,26.3671875,-2.9296875,-1.46484375,21.484375
1508291858217.0364,6.8359375,29.78515625,8.7890625,4.39453125,63.4765625
1508291858220.9426,1.46484375,26.3671875,5.37109375,15.13671875,55.17578125
1508291858224.8489,15.625,24.4140625,10.25390625,22.4609375,51.7578125
1508291858228.7551,17.08984375,24.90234375,11.23046875,21.97265625,78.61328125
1508291858229.1362,5.859375,23.92578125,5.37109375,13.18359375,73.73046875
1508291858233.0425,0.48828125,28.80859375,-5.859375,10.7421875,68.84765625
1508291858236.9487,11.23046875,35.64453125,-10.7421875,18.06640625,49.8046875
1508291858240.855,29.296875,37.59765625,0.9765625,25.390625,3.90625
1508291858244.7612,13.18359375,31.73828125,3.90625,23.92578125,-8.7890625
1508291858248.6675,-7.8125,29.296875,-7.32421875,7.32421875,19.04296875
1508291858252.5737,7.32421875,28.3203125,-15.13671875,1.46484375,-13.18359375
1508291858256.48,21.484375,24.4140625,0.0,6.8359375,-31.25
1508291858260.3862,10.7421875,24.4140625,11.23046875,20.01953125,12.20703125
1508291858264.2925,4.39453125,27.34375,-5.37109375,21.97265625,-18.5546875
1508291858268.1987,14.6484375,27.34375,-4.8828125,17.578125,-44.43359375
1508291858272.105,29.296875,28.80859375,10.7421875,27.83203125,-25.87890625
1508291858289.1965,22.4609375,30.76171875,9.765625,30.76171875,-17.578125
1508291858293.1028,2.44140625,26.3671875,6.8359375,15.625,13.18359375
1508291858297.009,-6.34765625,23.92578125,6.34765625,3.41796875,-2.9296875
1508291858300.9153,6.34765625,20.99609375,11.23046875,16.6015625,7.8125
1508291858304.8215,4.39453125,18.5546875,12.20703125,18.5546875,18.5546875
1508291858308.7278,-3.90625,24.4140625,-6.34765625,5.859375,-25.87890625
1508291858312.634,-6.34765625,26.3671875,-3.90625,1.953125,-0.9765625
1508291858316.5403,6.34765625,22.94921875,13.671875,25.390625,30.2734375
1508291858320.4465,4.39453125,20.99609375,10.7421875,40.0390625,47.36328125
1508291858324.3528,1.953125,17.08984375,14.16015625,23.4375,98.14453125
1508291858328.259,11.23046875,18.06640625,15.625,20.5078125,51.7578125
1508291858332.1653,-0.48828125,20.01953125,13.671875,16.6015625,8.30078125
1508291858334.208,-2.44140625,21.484375,16.11328125,22.4609375,58.10546875
1508291858338.1143,-2.9296875,23.4375,8.7890625,29.78515625,55.17578125
1508291858342.0205,-27.83203125,21.97265625,2.9296875,17.08984375,43.45703125
1508291858345.9268,-12.20703125,26.85546875,2.44140625,22.4609375,27.83203125
1508291858349.833,15.625,29.78515625,4.8828125,38.57421875,28.80859375
1508291858353.7393,-8.30078125,24.90234375,2.44140625,30.2734375,39.55078125
1508291858357.6455,-27.34375,23.4375,-0.9765625,15.625,53.7109375
1508291858361.5518,-21.484375,20.01953125,3.90625,25.87890625,64.453125
1508291858365.458,-12.20703125,26.85546875,1.953125,27.83203125,27.34375
1508291858369.3643,-1.953125,29.296875,-4.8828125,23.4375,5.859375
1508291858373.2705,12.6953125,23.92578125,16.6015625,44.43359375,-17.08984375
1508291858377.1768,7.8125,29.296875,33.203125,62.01171875,-19.04296875
1508291858379.2676,0.9765625,30.2734375,28.3203125,42.48046875,-25.87890625
1508291858383.1738,-9.765625,33.203125,22.94921875,23.4375,-35.64453125
1508291858387.08,-25.87890625,39.0625,19.53125,18.06640625,5.859375
1508291858390.9863,-41.015625,38.57421875,13.18359375,11.71875,17.578125
1508291858394.8926,-44.43359375,38.57421875,2.9296875,8.7890625,16.6015625
1508291858398.7988,-20.01953125,46.875,-2.44140625,12.20703125,11.23046875
1508291858402.705,-12.6953125,44.43359375,3.90625,6.8359375,15.625
1508291858406.6113,-37.109375,41.50390625,5.37109375,1.46484375,36.62109375
1508291858410.5176,-39.55078125,43.9453125,-8.30078125,10.7421875,27.83203125
1508291858414.4238,-18.06640625,41.9921875,-2.44140625,16.6015625,13.671875
1508291858418.33,-10.7421875,41.015625,20.01953125,16.6015625,-0.9765625
1508291858422.2363,-29.296875,37.59765625,19.53125,7.8125,-7.8125
1508291858424.3162,-34.1796875,41.9921875,17.08984375,9.765625,29.296875
1508291858428.2224,-17.578125,48.828125,19.04296875,21.97265625,36.1328125
1508291858432.1287,-15.13671875,44.921875,15.625,29.78515625,24.90234375
1508291858436.035,-20.99609375,44.921875,8.30078125,22.4609375,9.27734375
1508291858439.9412,-24.90234375,45.41015625,7.32421875,18.06640625,-13.671875
1508291858443.8474,-1.953125,45.8984375,11.23046875,23.92578125,-11.23046875
1508291858447.7537,4.8828125,45.8984375,11.71875,23.92578125,-7.8125
1508291858451.66,-4.39453125,43.45703125,-1.46484375,26.3671875,-27.83203125
1508291858455.5662,-15.625,43.9453125,-12.20703125,16.6015625,-55.17578125
1508291858459.4724,-16.6015625,41.9921875,-10.7421875,20.01953125,-16.11328125
1508291858463.3787,-11.71875,38.57421875,-6.34765625,35.64453125,34.1796875
1508291858467.285,-3.41796875,39.55078125,-10.25390625,31.25,-6.34765625
1508291858469.3484,-1.46484375,42.48046875,-8.7890625,21.97265625,-44.921875
1508291858473.2546,-11.23046875,43.9453125,-4.39453125,30.76171875,-45.41015625
1508291858477.161,-0.9765625,40.0390625,-4.8828125,43.9453125,-17.08984375
1508291858481.0671,-0.9765625,38.0859375,-11.23046875,36.1328125,-18.06640625
1508291858484.9734,-11.71875,40.0390625,-20.5078125,21.484375,-31.25
1508291858488.8796,-20.5078125,40.0390625,-15.13671875,19.04296875,-66.89453125
1508291858492.786,-17.08984375,35.64453125,-5.859375,37.59765625,-59.5703125
1508291858496.6921,-22.94921875,26.3671875,-14.6484375,44.43359375,-2.44140625
1508291858500.5984,-11.23046875,27.34375,-23.92578125,35.64453125,-27.34375
1508291858504.5046,1.46484375,37.59765625,-11.23046875,31.25,-40.0390625
1508291858508.411,4.39453125,37.109375,-5.859375,40.52734375,-9.27734375
1508291858512.3171,4.8828125,27.83203125,-1.953125,46.38671875,7.8125
1508291858513.8813,-6.8359375,26.85546875,-5.37109375,44.921875,-8.7890625
1508291858517.7876,-18.5546875,22.4609375,-2.44140625,36.1328125,-3.41796875
1508291858521.6938,-20.01953125,15.13671875,-2.9296875,36.62109375,-14.6484375
1508291858525.6,-8.7890625,23.4375,-3.90625,51.26953125,-18.06640625
1508291858529.5063,-5.859375,31.73828125,1.46484375,46.38671875,-8.30078125
1508291858533.4126,-1.953125,32.2265625,-3.90625,33.69140625,-21.484375
1508291858537.3188,3.41796875,29.78515625,2.44140625,40.0390625,10.25390625
1508291858541.225,4.39453125,27.34375,6.8359375,54.19921875,1.953125
1508291858545.1313,0.0,23.4375,12.20703125,46.875,-47.8515625
1508291858549.0376,-12.20703125,19.04296875,17.08984375,42.48046875,-13.671875
1508291858552.9438,-11.23046875,25.390625,3.90625,37.109375,35.15625
1508291858556.85,17.08984375,31.25,-3.90625,42.96875,15.13671875
1508291858558.9326,8.7890625,27.34375,-0.48828125,53.7109375,3.90625
1508291858562.8389,-2.9296875,30.2734375,-6.8359375,56.640625,29.296875
1508291858566.745,-11.71875,27.83203125,-16.6015625,49.8046875,28.3203125
1508291858570.6514,-20.01953125,21.97265625,-3.41796875,47.8515625,19.04296875
1508291858574.5576,-3.41796875,23.4375,4.8828125,58.10546875,37.109375
1508291858578.4639,-6.34765625,22.94921875,-3.90625,59.08203125,42.48046875
1508291858582.37,-6.8359375,29.78515625,-20.01953125,52.734375,9.765625
1508291858586.2764,6.34765625,32.71484375,-15.625,43.9453125,-24.4140625
1508291858590.1826,2.44140625,22.4609375,13.671875,56.640625,44.43359375
1508291858594.0889,-7.32421875,20.01953125,5.37109375,65.91796875,34.1796875
1508291858597.995,-11.71875,22.94921875,-5.859375,46.875,-17.578125
1508291858601.9014,-14.16015625,24.90234375,5.37109375,49.8046875,-9.27734375
1508291858603.9438,5.37109375,28.80859375,6.34765625,70.80078125,-1.46484375
1508291858607.85,19.53125,30.2734375,0.0,67.87109375,-10.25390625
1508291858611.7563,6.8359375,28.80859375,-6.8359375,52.24609375,-15.13671875
1508291858615.6626,-5.37109375,25.390625,-11.71875,46.38671875,7.32421875
1508291858619.5688,-4.39453125,23.92578125,-4.39453125,53.22265625,17.578125
1508291858623.475,4.39453125,25.390625,-0.9765625,63.96484375,15.625
1508291858627.3813,0.48828125,27.34375,-10.7421875,62.5,-0.48828125
1508291858631.2876,-14.16015625,27.34375,-8.30078125,44.921875,-19.04296875
1508291858635.1938,-10.7421875,25.390625,9.27734375,57.12890625,-3.90625
1508291858639.1,-0.9765625,23.92578125,4.8828125,72.265625,16.6015625
1508291858643.0063,8.7890625,22.94921875,-0.48828125,67.3828125,27.34375
1508291858646.9126,10.7421875,22.4609375,7.32421875,57.6171875,20.5078125
1508291858649.4788,0.9765625,26.3671875,9.27734375,51.26953125,26.85546875
1508291858653.385,3.90625,26.3671875,6.8359375,62.98828125,15.13671875
1508291858657.2913,-3.41796875,18.5546875,10.25390625,70.3125,-11.23046875
1508291858661.1975,-14.16015625,20.5078125,16.6015625,67.3828125,26.85546875
1508291858665.1038,-11.23046875,29.296875,10.25390625,53.22265625,-0.48828125
1508291858669.01,-3.90625,29.78515625,-0.48828125,46.38671875,-30.2734375
1508291858672.9163,-4.39453125,26.3671875,2.9296875,53.22265625,-16.6015625
1508291858676.8225,-18.5546875,21.484375,7.8125,49.8046875,10.25390625
1508291858680.7288,-39.0625,16.11328125,0.9765625,53.7109375,-0.48828125
1508291858684.635,-20.01953125,20.01953125,-4.39453125,60.05859375,-43.9453125
1508291858688.5413,8.7890625,21.97265625,3.90625,57.12890625,-41.015625
1508291858692.4475,2.44140625,18.5546875,12.20703125,58.59375,-37.59765625
1508291858709.0183,-11.23046875,19.04296875,10.25390625,56.640625,-18.5546875
1508291858712.9246,-20.5078125,19.53125,10.7421875,55.6640625,7.8125
1508291858716.8308,2.44140625,23.92578125,6.34765625,52.734375,12.6953125
1508291858720.737,13.671875,26.85546875,-0.48828125,46.875,-10.25390625
1508291858724.6433,0.48828125,25.87890625,-2.44140625,46.38671875,-3.41796875
1508291858728.5496,-2.9296875,28.80859375,0.48828125,49.31640625,-11.71875
1508291858732.4558,5.37109375,27.34375,11.71875,56.15234375,-5.37109375
1508291858736.362,8.7890625,22.4609375,22.94921875,57.6171875,37.109375
1508291858740.2683,12.20703125,25.390625,13.18359375,55.6640625,22.4609375
1508291858744.1746,-0.48828125,25.390625,1.953125,39.55078125,-23.4375
1508291858748.0808,9.765625,27.34375,10.25390625,48.828125,-55.17578125
1508291858751.987,30.76171875,31.25,11.71875,70.80078125,-55.6640625
1508291858754.0518,14.6484375,22.4609375,5.37109375,61.5234375,-30.2734375
1508291858757.958,-9.765625,16.6015625,8.7890625,52.24609375,-41.9921875
1508291858761.8643,-0.48828125,22.4609375,17.578125,55.6640625,-40.0390625
1508291858765.7705,17.578125,24.90234375,24.90234375,63.96484375,-45.8984375
1508291858769.6768,15.625,22.94921875,22.4609375,70.3125,-18.06640625
1508291858773.583,7.32421875,25.87890625,13.18359375,55.6640625,34.66796875
1508291858777.4893,-5.37109375,25.390625,13.671875,44.921875,27.83203125
1508291858781.3955,2.44140625,25.390625,25.87890625,58.59375,24.4140625
1508291858785.3018,14.16015625,28.80859375,21.97265625,56.15234375,4.39453125
1508291858789.208,6.8359375,32.71484375,17.08984375,36.62109375,-51.26953125
1508291858793.1143,-1.953125,29.78515625,36.1328125,41.9921875,-62.01171875
1508291858797.0205,4.8828125,28.3203125,42.48046875,61.5234375,-19.04296875
1508291858799.0835,18.5546875,28.80859375,39.55078125,63.96484375,-18.5546875
1508291858802.9897,3.90625,23.4375,38.57421875,53.7109375,-21.97265625
1508291858806.896,-10.7421875,24.90234375,36.1328125,41.50390625,6.8359375
1508291858810.8022,11.23046875,33.69140625,28.3203125,46.875,10.25390625
1508291858814.7085,20.99609375,36.1328125,19.53125,55.17578125,-5.859375
1508291858818.6147,11.71875,32.2265625,14.16015625,46.38671875,-0.9765625
1508291858822.521,3.90625,28.3203125,19.53125,39.55078125,-4.8828125
1508291858826.4272,3.41796875,26.3671875,29.78515625,51.7578125,32.2265625
1508291858830.3335,4.8828125,27.34375,16.6015625,54.6875,39.0625
1508291858834.2397,7.8125,30.2734375,18.5546875,48.33984375,11.71875
1508291858838.146,3.90625,31.73828125,26.3671875,47.36328125,20.99609375
1508291858842.0522,-13.18359375,30.2734375,20.01953125,51.26953125,25.87890625
1508291858844.1345,-8.30078125,31.25,23.92578125,59.5703125,47.8515625
1508291858848.0408,-0.48828125,36.1328125,23.92578125,59.5703125,38.57421875
1508291858851.947,-14.16015625,37.59765625,17.08984375,46.38671875,16.6015625
1508291858855.8533,-14.16015625,35.15625,11.23046875,34.1796875,15.13671875
1508291858859.7595,7.32421875,33.69140625,11.71875,40.0390625,33.203125
1508291858863.6658,3.90625,31.73828125,12.20703125,41.50390625,41.50390625
1508291858867.572,-10.7421875,32.2265625,16.6015625,35.15625,60.05859375
1508291858871.4783,-10.7421875,33.69140625,3.41796875,25.390625,37.109375
1508291858875.3845,-7.32421875,30.2734375,0.48828125,26.3671875,15.13671875
1508291858879.2908,0.0,27.83203125,18.5546875,41.015625,39.0625
1508291858883.197,-4.39453125,29.296875,17.08984375,44.43359375,24.90234375
1508291858887.1033,-12.6953125,30.76171875,15.625,36.62109375,7.32421875
1508291858889.146,3.41796875,33.69140625,17.578125,31.73828125,5.37109375
1508291858893.0522,12.6953125,32.2265625,15.13671875,37.109375,16.11328125
1508291858896.9585,5.37109375,28.3203125,11.23046875,44.43359375,9.765625
1508291858900.8647,-11.71875,26.85546875,4.8828125,33.203125,19.53125
1508291858904.771,-16.11328125,26.3671875,3.90625,30.2734375,35.64453125
1508291858908.6772,-1.46484375,28.80859375,4.8828125,41.50390625,40.52734375
1508291858912.5835,-6.8359375,27.34375,8.7890625,47.36328125,51.7578125
1508291858916.4897,-13.18359375,24.90234375,0.0,35.15625,-16.6015625
1508291858920.396,-15.625,24.90234375,1.46484375,22.94921875,-38.0859375
1508291858924.3022,-7.32421875,21.97265625,24.90234375,44.921875,9.765625
1508291858928.2085,0.0,21.97265625,19.53125,53.7109375,14.6484375
1508291858932.1147,-5.859375,26.3671875,13.671875,48.33984375,9.765625
1508291858934.1802,-17.08984375,26.3671875,19.04296875,45.41015625,-12.6953125
1508291858938.0864,-15.13671875,24.90234375,15.625,56.15234375,-22.94921875
1508291858941.9927,-9.27734375,23.4375,9.27734375,71.77734375,-9.27734375
1508291858945.899,-2.44140625,24.4140625,9.765625,72.265625,-20.5078125
1508291858949.8052,-3.41796875,23.4375,17.578125,64.94140625,-13.18359375
1508291858953.7114,-17.08984375,20.01953125,19.04296875,59.08203125,23.92578125
1508291858957.6177,-13.18359375,18.5546875,10.7421875,64.453125,16.11328125
1508291858961.524,-11.71875,19.04296875,12.6953125,59.08203125,-0.48828125
1508291858965.4302,-23.92578125,19.53125,23.92578125,40.0390625,-10.25390625
1508291858969.3364,-20.99609375,23.92578125,19.53125,44.921875,-25.87890625
1508291858973.2427,-8.30078125,27.83203125,12.6953125,62.5,-3.41796875
1508291858977.149,12.6953125,26.3671875,16.11328125,71.77734375,24.90234375
1508291858979.212,14.6484375,29.78515625,17.08984375,76.171875,13.18359375
1508291858983.1182,-13.671875,27.34375,12.20703125,59.5703125,18.06640625
1508291858987.0244,0.9765625,22.94921875,14.6484375,64.94140625,56.640625
1508291858990.9307,30.2734375,23.92578125,22.94921875,88.37890625,48.828125
1508291858994.837,31.25,24.4140625,37.59765625,99.609375,-1.46484375
1508291858998.7432,21.484375,23.4375,48.33984375,97.16796875,-30.2734375
1508291859002.6494,30.76171875,24.4140625,56.15234375,100.5859375,-54.19921875
1508291859006.5557,51.26953125,23.92578125,70.80078125,127.9296875,-39.0625
1508291859010.462,67.3828125,20.01953125,81.54296875,154.296875,-24.90234375
1508291859014.3682,71.2890625,19.04296875,75.1953125,148.4375,-35.64453125
1508291859018.2744,64.453125,16.6015625,66.89453125,133.30078125,-75.1953125
1508291859022.1807,85.9375,20.01953125,78.125,152.83203125,-72.265625
1508291859024.2434,116.69921875,22.94921875,79.58984375,178.22265625,-54.6875
1508291859028.1497,96.19140625,19.04296875,60.546875,165.0390625,-50.29296875
1508291859032.056,93.26171875,20.99609375,52.24609375,166.015625,-40.0390625
1508291859035.9622,123.046875,22.4609375,59.08203125,197.75390625,-43.9453125
1508291859039.8684,114.2578125,21.484375,59.5703125,198.73046875,-16.6015625
1508291859043.7747,102.05078125,21.484375,45.8984375,174.31640625,-31.73828125
1508291859047.681,97.65625,18.5546875,47.8515625,168.45703125,-39.55078125
1508291859051.5872,98.6328125,14.6484375,62.98828125,177.734375,-19.04296875
1508291859055.4934,104.4921875,19.53125,50.78125,173.828125,3.90625
1508291859059.3997,111.328125,23.92578125,45.8984375,162.59765625,15.13671875
1508291859063.306,88.8671875,25.87890625,54.19921875,150.390625,-16.11328125
1508291859067.2122,83.0078125,27.83203125,53.22265625,162.59765625,-26.3671875
1508291859084.2842,92.28515625,23.4375,47.36328125,166.015625,-25.87890625
1508291859088.1904,83.984375,23.92578125,48.33984375,152.34375,-40.52734375
1508291859092.0967,68.359375,27.34375,45.8984375,139.16015625,-39.0625
1508291859096.003,66.40625,27.83203125,36.62109375,136.23046875,-16.11328125
1508291859099.9092,72.75390625,24.90234375,38.57421875,145.99609375,19.04296875
1508291859103.8154,62.01171875,20.99609375,34.1796875,138.18359375,22.4609375
1508291859107.7217,54.6875,27.34375,32.71484375,129.39453125,-13.18359375
1508291859111.628,46.38671875,30.2734375,38.57421875,123.046875,0.9765625
1508291859115.5342,44.921875,22.94921875,41.50390625,129.8828125,-7.8125
1508291859119.4404,48.33984375,22.4609375,38.0859375,116.69921875,-24.90234375
1508291859123.3467,37.109375,23.4375,41.9921875,99.609375,-23.92578125
1508291859127.253,26.85546875,20.01953125,48.33984375,106.93359375,-13.671875
1508291859129.3193,38.57421875,21.484375,40.0390625,109.86328125,-32.71484375
1508291859133.2256,50.29296875,22.94921875,34.66796875,117.67578125,-24.90234375
1508291859137.1318,41.50390625,20.5078125,30.2734375,116.2109375,9.765625
1508291859141.038,27.34375,21.97265625,22.94921875,98.14453125,-15.13671875
1508291859144.9443,32.2265625,25.87890625,21.97265625,90.33203125,-12.20703125
1508291859148.8506,35.64453125,25.390625,26.3671875,97.16796875,6.8359375
1508291859152.7568,24.90234375,20.99609375,30.2734375,93.75,-10.25390625
1508291859156.663,7.32421875,17.578125,32.71484375,79.1015625,2.44140625
1508291859160.5693,5.859375,15.625,22.94921875,80.078125,-15.625
1508291859164.4756,13.18359375,15.625,26.3671875,82.51953125,-6.34765625
1508291859168.3818,11.71875,16.11328125,41.015625,89.35546875,46.38671875
1508291859172.288,6.34765625,15.13671875,33.203125,96.6796875,29.78515625
1508291859174.3506,-4.8828125,16.6015625,27.83203125,81.0546875,30.76171875
1508291859178.2568,1.953125,21.484375,26.85546875,72.265625,0.0
1508291859182.163,10.7421875,20.01953125,22.94921875,75.1953125,-41.9921875
1508291859186.0693,-0.9765625,21.484375,14.16015625,72.265625,26.85546875
1508291859189.9756,-6.8359375,29.78515625,3.41796875,65.4296875,37.109375
1508291859193.8818,4.39453125,29.78515625,7.32421875,72.75390625,-22.94921875
1508291859197.788,13.18359375,26.85546875,22.4609375,81.54296875,8.7890625
1508291859201.6943,12.20703125,30.76171875,28.3203125,86.42578125,7.32421875
1508291859205.6006,1.46484375,33.69140625,8.7890625,66.89453125,-89.84375
1508291859209.5068,-3.41796875,31.25,14.6484375,54.19921875,-66.40625
1508291859213.413,3.41796875,24.90234375,27.34375,71.77734375,-4.39453125
1508291859217.3193,15.13671875,22.94921875,9.765625,82.03125,-47.36328125
1508291859218.8804,15.13671875,25.390625,0.48828125,81.54296875,-78.125
1508291859222.7866,-3.90625,25.390625,-4.8828125,61.5234375,-74.70703125
1508291859226.6929,-9.765625,28.3203125,-13.18359375,43.45703125,-44.43359375
1508291859230.599,-11.71875,25.390625,-26.85546875,37.109375,-37.109375
1508291859234.5054,-22.4609375,25.87890625,-42.96875,32.71484375,-42.48046875
1508291859238.4116,-32.71484375,31.73828125,-42.96875,27.83203125,-14.16015625
1508291859242.3179,-18.5546875,27.83203125,-31.73828125,30.76171875,-0.48828125
1508291859246.224,-22.4609375,24.4140625,-39.0625,37.59765625,-14.16015625
1508291859250.1304,-29.296875,26.3671875,-51.26953125,26.85546875,-21.484375
1508291859254.0366,-14.6484375,28.3203125,-41.50390625,21.484375,-24.4140625
1508291859257.9429,-8.30078125,27.34375,-35.15625,37.59765625,1.46484375
1508291859261.849,-10.7421875,30.76171875,-37.59765625,38.0859375,13.18359375
1508291859263.912,-10.7421875,31.73828125,-37.59765625,33.203125,-19.04296875
1508291859267.8184,-13.671875,26.3671875,-34.1796875,30.2734375,-15.625
1508291859271.7246,-13.18359375,28.3203125,-35.15625,26.85546875,3.90625
1508291859275.6309,-4.39453125,27.83203125,-29.296875,35.64453125,-13.671875
1508291859279.537,-5.37109375,20.99609375,-12.6953125,40.0390625,-15.625
1508291859283.4434,-19.04296875,23.4375,-11.71875,30.2734375,-22.4609375
1508291859287.3496,-18.06640625,28.80859375,-13.18359375,25.390625,-51.7578125
1508291859291.2559,-3.90625,27.34375,-24.4140625,31.25,-67.3828125
1508291859295.162,4.39453125,25.87890625,-22.94921875,37.109375,-12.20703125
1508291859299.0684,2.9296875,28.3203125,-10.25390625,34.66796875,18.5546875
1508291859302.9746,-11.23046875,22.4609375,-10.25390625,27.83203125,0.9765625
1508291859306.8809,-14.6484375,18.5546875,5.37109375,36.1328125,-1.46484375
1508291859308.9443,-1.953125,24.90234375,20.5078125,46.38671875,-3.90625
1508291859312.8506,5.37109375,25.390625,14.6484375,50.29296875,3.41796875
1508291859316.7568,-5.859375,26.3671875,-3.90625,44.43359375,12.20703125
1508291859320.663,6.34765625,31.25,-7.32421875,47.8515625,0.9765625
1508291859324.5693,2.44140625,32.71484375,-2.44140625,45.41015625,-22.4609375
1508291859328.4756,-7.8125,32.71484375,-2.9296875,45.41015625,-25.390625
1508291859332.3818,0.9765625,32.71484375,-9.27734375,37.59765625,-23.92578125
1508291859336.288,0.9765625,32.71484375,-3.41796875,29.78515625,-61.5234375
1508291859340.1943,10.7421875,27.34375,21.484375,56.640625,-31.73828125
1508291859344.1006,2.44140625,28.80859375,9.765625,55.6640625,0.9765625
1508291859348.0068,-17.578125,29.78515625,-6.34765625,27.83203125,-23.92578125
1508291859351.913,-14.16015625,27.83203125,-2.9296875,35.64453125,-0.9765625
1508291859353.9758,5.859375,33.203125,4.8828125,51.7578125,-7.8125
1508291859357.882,18.06640625,34.1796875,15.13671875,53.7109375,-17.08984375
1508291859361.7883,4.8828125,28.80859375,10.25390625,41.015625,-1.953125
1508291859365.6946,-11.71875,29.296875,7.8125,32.71484375,-19.04296875
1508291859369.6008,-5.859375,27.83203125,14.6484375,40.0390625,-31.73828125
1508291859373.507,5.859375,25.87890625,16.6015625,40.52734375,7.8125
1508291859377.4133,2.9296875,27.34375,7.32421875,27.34375,-9.765625
1508291859381.3196,-16.11328125,27.83203125,0.48828125,17.08984375,-5.859375
1508291859385.2258,-20.01953125,27.34375,9.765625,32.71484375,35.15625
1508291859389.132,-7.8125,23.92578125,4.39453125,46.875,18.5546875
1508291859393.0383,-2.9296875,27.83203125,-6.8359375,43.45703125,11.23046875
1508291859396.9446,-18.5546875,27.83203125,3.90625,32.71484375,42.48046875
1508291859399.0095,-20.5078125,24.90234375,3.41796875,27.83203125,50.29296875
1508291859402.9158,-3.41796875,27.34375,-11.23046875,36.62109375,-0.48828125
1508291859406.822,-1.46484375,25.87890625,-6.34765625,45.41015625,28.3203125
1508291859410.7283,-5.859375,23.4375,-2.44140625,38.0859375,35.64453125
1508291859414.6345,-6.34765625,25.390625,1.953125,35.15625,30.76171875
1508291859418.5408,7.32421875,27.83203125,0.48828125,57.12890625,59.5703125
1508291859422.447,23.4375,24.90234375,1.46484375,57.12890625,45.41015625
1508291859426.3533,5.859375,27.34375,14.16015625,38.57421875,63.96484375
1508291859430.2595,-17.08984375,28.80859375,8.30078125,42.96875,33.203125
1508291859434.1658,-1.953125,20.99609375,3.90625,45.8984375,6.8359375
1508291859438.072,6.8359375,21.97265625,7.32421875,43.9453125,25.390625
1508291859441.9783,3.41796875,25.87890625,6.34765625,55.6640625,-4.39453125
1508291859459.0508,-2.44140625,29.296875,2.44140625,54.19921875,-44.921875
1508291859462.957,-2.9296875,27.83203125,5.859375,64.453125,1.46484375
1508291859466.8633,2.44140625,21.97265625,18.06640625,82.51953125,20.01953125
1508291859470.7695,-0.9765625,24.90234375,18.06640625,68.359375,-11.71875
1508291859474.6758,-11.23046875,26.3671875,10.25390625,58.59375,10.25390625
1508291859478.582,-9.27734375,20.5078125,2.9296875,62.5,15.13671875
1508291859482.4883,5.37109375,21.484375,10.25390625,67.87109375,-37.109375
1508291859486.3945,7.32421875,26.3671875,19.04296875,79.58984375,-18.5546875
1508291859490.3008,-2.9296875,22.94921875,8.7890625,72.265625,36.1328125
1508291859494.207,-3.41796875,20.99609375,2.44140625,61.03515625,25.87890625
1508291859498.1133,18.06640625,24.90234375,7.32421875,83.984375,23.4375
1508291859502.0195,1.953125,23.92578125,6.34765625,81.0546875,26.3671875
1508291859504.103,-20.5078125,21.484375,0.48828125,55.6640625,18.5546875
1508291859508.0093,-20.5078125,21.484375,-2.9296875,53.7109375,10.25390625
1508291859511.9155,-12.20703125,26.3671875,1.953125,65.91796875,20.99609375
1508291859515.8218,-3.41796875,25.87890625,7.32421875,76.66015625,19.53125
1508291859519.728,3.41796875,22.4609375,-1.46484375,78.125,32.2265625
1508291859523.6343,-4.39453125,28.3203125,-11.23046875,74.70703125,53.7109375
1508291859527.5405,-7.32421875,31.73828125,-17.578125,73.2421875,-2.9296875
1508291859531.4468,11.71875,30.76171875,-10.25390625,82.51953125,-18.5546875
1508291859535.353,5.859375,32.71484375,-7.8125,80.078125,-6.8359375
1508291859539.2593,-15.13671875,28.80859375,-11.71875,60.05859375,-32.71484375
1508291859543.1655,-25.390625,27.34375,3.90625,53.22265625,-25.87890625
1508291859547.0718,-8.30078125,28.3203125,3.90625,62.98828125,-4.39453125
1508291859549.1353,1.953125,24.4140625,-4.8828125,72.265625,-6.34765625
1508291859553.0415,-8.30078125,28.3203125,-9.27734375,64.94140625,18.5546875
1508291859556.9478,-6.8359375,31.25,-9.27734375,62.01171875,20.01953125
1508291859560.854,6.8359375,28.3203125,-7.8125,72.265625,-14.16015625
1508291859564.7603,22.94921875,29.296875,-4.8828125,73.73046875,-26.3671875
1508291859568.6665,18.06640625,27.83203125,-4.39453125,77.1484375,-7.32421875
1508291859572.5728,4.39453125,23.4375,-5.859375,78.125,-5.859375
1508291859576.479,-0.48828125,22.94921875,6.8359375,77.63671875,-27.34375
1508291859580.3853,-1.953125,21.97265625,5.37109375,76.171875,-6.34765625
1508291859584.2915,-5.859375,22.4609375,5.37109375,78.61328125,20.99609375
1508291859588.1978,-12.20703125,21.484375,20.01953125,82.03125,26.3671875
1508291859592.104,-9.765625,20.99609375,18.5546875,76.66015625,-0.9765625
1508291859594.154,-0.48828125,21.97265625,17.08984375,73.2421875,13.18359375
1508291859598.0603,-2.9296875,24.90234375,12.6953125,68.359375,39.0625
1508291859601.9666,-6.8359375,27.34375,5.859375,68.359375,34.66796875
1508291859605.8728,-9.27734375,28.3203125,-7.32421875,62.01171875,36.62109375
1508291859609.779,-1.46484375,30.76171875,-5.859375,62.98828125,7.8125
1508291859613.6853,14.16015625,30.76171875,4.39453125,68.359375,-2.9296875
1508291859617.5916,10.7421875,26.85546875,12.6953125,64.453125,15.625
1508291859621.4978,-4.8828125,23.92578125,11.23046875,62.5,30.2734375
1508291859625.404,0.0,22.4609375,11.23046875,58.59375,24.90234375
1508291859629.3103,4.39453125,17.578125,31.25,60.546875,18.06640625
1508291859633.2166,3.41796875,17.578125,25.87890625,63.4765625,49.8046875
1508291859637.1228,-0.9765625,23.4375,6.34765625,46.875,49.31640625
1508291859639.1804,-6.34765625,26.3671875,4.8828125,43.45703125,40.52734375
1508291859643.0867,-4.8828125,23.92578125,15.13671875,61.03515625,85.44921875
1508291859646.993,-3.41796875,22.94921875,7.32421875,62.01171875,55.6640625
1508291859650.8992,3.90625,22.4609375,2.9296875,53.22265625,38.57421875
1508291859654.8054,19.04296875,21.484375,3.90625,68.84765625,79.1015625
1508291859658.7117,10.25390625,20.01953125,0.48828125,66.89453125,30.2734375
1508291859662.618,-37.59765625,18.06640625,4.8828125,19.04296875,-6.34765625
1508291859666.5242,-71.2890625,19.53125,-2.9296875,-25.390625,-17.578125
1508291859670.4304,-84.47265625,18.5546875,-7.8125,-52.734375,-2.9296875
1508291859674.3367,-86.42578125,14.6484375,-3.90625,-53.7109375,71.77734375
1508291859678.243,-105.46875,16.6015625,-10.7421875,-70.3125,63.96484375
1508291859682.1492,-147.94921875,15.13671875,-14.6484375,-108.3984375,-1.46484375
1508291859684.2104,-155.76171875,15.625,-11.23046875,-114.74609375,-2.9296875
1508291859688.1167,-151.85546875,20.5078125,-14.16015625,-111.81640625,13.671875
1508291859692.023,-160.15625,17.08984375,-17.578125,-120.60546875,-13.18359375
1508291859695.9292,-150.390625,19.04296875,-10.7421875,-118.1640625,13.671875
1508291859699.8354,-155.76171875,28.3203125,-12.20703125,-125.0,54.6875
1508291859703.7417,-149.4140625,32.2265625,-20.01953125,-115.234375,18.06640625
1508291859707.648,-125.9765625,32.71484375,-23.92578125,-108.88671875,0.48828125
1508291859711.5542,-122.55859375,33.203125,-21.484375,-120.60546875,-32.2265625
1508291859715.4604,-117.67578125,32.2265625,-3.41796875,-112.79296875,-8.7890625
1508291859719.3667,-107.421875,31.25,-7.32421875,-100.09765625,-3.41796875
1508291859723.273,-93.26171875,25.87890625,-8.30078125,-83.0078125,1.953125
1508291859727.1792,-73.73046875,24.4140625,-6.8359375,-72.75390625,34.66796875
1508291859729.2427,-66.40625,29.296875,-15.625,-76.171875,9.765625
1508291859733.149,-67.87109375,29.78515625,-14.16015625,-66.89453125,2.9296875
1508291859737.0552,-55.17578125,27.34375,-6.8359375,-49.31640625,16.6015625
1508291859740.9614,-42.48046875,26.85546875,-4.8828125,-34.66796875,-5.37109375
1508291859744.8677,-42.96875,23.92578125,-3.90625,-32.2265625,-36.1328125
1508291859748.774,-52.734375,21.97265625,-11.23046875,-35.64453125,-37.59765625
1508291859752.6802,-42.48046875,20.99609375,-15.13671875,-26.3671875,-25.87890625
1508291859756.5864,-26.85546875,22.4609375,-4.39453125,-21.97265625,-25.390625
1508291859760.4927,-34.66796875,26.3671875,5.859375,-22.94921875,-1.953125
1508291859764.399,-47.36328125,30.76171875,-3.41796875,-33.69140625,-8.7890625
1508291859768.3052,-50.78125,31.73828125,-1.953125,-29.78515625,-13.671875
1508291859772.2114,-34.1796875,30.76171875,11.71875,-10.7421875,5.859375
1508291859774.2766,-15.13671875,32.2265625,14.6484375,-10.7421875,-1.953125
1508291859778.1829,-19.53125,32.2265625,8.30078125,-16.6015625,-23.92578125
1508291859782.089,-26.85546875,31.25,3.90625,-13.18359375,4.39453125
1508291859785.9954,-16.11328125,30.76171875,4.39453125,-1.46484375,-4.39453125
1508291859789.9016,-5.859375,26.3671875,3.90625,8.30078125,-35.64453125
1508291859793.8079,-18.5546875,21.97265625,-8.7890625,2.44140625,-20.01953125
1508291859797.714,-35.15625,27.34375,-14.6484375,-16.11328125,-6.8359375
1508291859801.6204,-24.90234375,28.80859375,5.37109375,-9.27734375,41.9921875
1508291859805.5266,-16.6015625,28.80859375,0.9765625,6.34765625,23.92578125
1508291859809.4329,-16.6015625,28.80859375,-4.39453125,1.46484375,0.0
1508291859813.339,-25.87890625,24.90234375,3.41796875,0.48828125,10.7421875
1508291859817.2454,-19.04296875,27.34375,9.765625,12.20703125,17.08984375
1508291859834.3196,0.0,28.3203125,14.6484375,17.08984375,36.62109375
1508291859838.2258,-0.9765625,27.83203125,7.32421875,9.765625,22.4609375
1508291859842.132,-5.859375,30.2734375,0.0,1.953125,7.32421875
1508291859846.0383,-3.90625,30.2734375,1.46484375,4.39453125,-19.04296875
1508291859849.9446,-2.9296875,24.90234375,4.8828125,18.06640625,-18.5546875
1508291859853.8508,0.0,24.90234375,3.41796875,24.4140625,52.734375
1508291859857.757,-6.8359375,25.87890625,12.20703125,20.99609375,28.3203125
1508291859861.6633,-9.765625,26.85546875,18.5546875,21.97265625,8.30078125
1508291859865.5696,3.90625,29.296875,11.71875,32.71484375,7.8125
1508291859869.4758,6.8359375,31.73828125,8.7890625,23.4375,22.94921875
1508291859873.382,-2.9296875,34.1796875,16.11328125,12.20703125,65.91796875
1508291859877.2883,-15.13671875,33.69140625,17.08984375,18.06640625,67.3828125
1508291859879.3516,-10.25390625,35.64453125,14.6484375,27.34375,53.7109375
1508291859883.2578,0.9765625,37.59765625,15.13671875,31.25,29.296875
1508291859887.164,-4.39453125,34.66796875,16.6015625,36.1328125,21.97265625
1508291859891.0703,-10.7421875,37.109375,20.99609375,25.390625,19.53125
1508291859894.9766,5.859375,39.0625,15.13671875,22.4609375,-29.78515625
1508291859898.8828,9.765625,32.2265625,6.34765625,32.71484375,-42.96875
1508291859902.789,4.8828125,30.2734375,13.18359375,32.71484375,7.8125
1508291859906.6953,-5.859375,27.83203125,18.5546875,27.34375,7.32421875
1508291859910.6016,-15.13671875,31.25,6.8359375,15.625,-18.5546875
1508291859914.5078,-4.39453125,34.1796875,7.32421875,17.578125,-6.34765625
1508291859918.414,-3.41796875,32.2265625,19.04296875,37.59765625,3.90625
1508291859922.3203,-5.37109375,27.83203125,9.765625,36.1328125,-40.52734375
1508291859923.8835,-3.90625,25.390625,12.20703125,25.87890625,29.296875
1508291859927.7898,3.41796875,24.4140625,21.484375,27.83203125,56.15234375
1508291859931.696,4.8828125,24.4140625,20.99609375,26.85546875,-10.25390625
1508291859935.6023,2.9296875,29.296875,11.71875,14.16015625,3.41796875
1508291859939.5085,2.9296875,26.85546875,1.46484375,4.8828125,-26.3671875
1508291859943.4148,-0.48828125,28.80859375,5.859375,10.7421875,-21.97265625
1508291859947.321,0.9765625,30.2734375,4.8828125,13.671875,55.6640625
1508291859951.2273,-0.48828125,23.4375,2.9296875,19.53125,50.29296875
1508291859955.1335,-11.23046875,20.99609375,-2.44140625,16.6015625,-10.25390625
1508291859959.0398,-6.8359375,25.87890625,5.37109375,18.06640625,-9.27734375
1508291859962.946,1.46484375,30.76171875,18.5546875,40.0390625,36.62109375
1508291859966.8523,4.39453125,32.71484375,9.27734375,40.52734375,16.11328125
1508291859968.9146,0.48828125,37.59765625,5.37109375,31.25,41.50390625
1508291859972.8208,1.46484375,37.59765625,3.41796875,25.87890625,42.96875
1508291859976.727,10.7421875,34.66796875,-1.953125,34.66796875,20.99609375
1508291859980.6333,4.39453125,30.76171875,-0.9765625,41.50390625,47.36328125
1508291859984.5396,-9.27734375,25.87890625,8.30078125,38.57421875,51.26953125
1508291859988.4458,-12.6953125,22.4609375,18.06640625,36.1328125,28.80859375
1508291859992.352,4.8828125,20.99609375,27.34375,46.38671875,31.73828125
1508291859996.2583,8.30078125,26.3671875,26.3671875,50.78125,47.36328125
1508291860000.1646,4.39453125,30.2734375,22.4609375,39.0625,58.10546875
1508291860004.0708,-6.34765625,26.85546875,36.62109375,33.69140625,53.22265625
1508291860007.977,-3.41796875,24.4140625,33.69140625,47.8515625,31.73828125
1508291860011.8833,12.20703125,26.85546875,25.87890625,55.6640625,45.41015625
1508291860013.9446,3.90625,24.4140625,27.83203125,51.26953125,50.78125
1508291860017.8508,-8.30078125,21.484375,18.5546875,39.55078125,44.43359375
1508291860021.757,-1.953125,22.4609375,14.16015625,38.0859375,53.22265625
1508291860025.6633,2.9296875,20.01953125,28.3203125,46.38671875,72.265625
1508291860029.5696,8.7890625,19.04296875,30.2734375,43.9453125,69.82421875
1508291860033.4758,9.765625,23.4375,16.6015625,36.1328125,41.50390625
1508291860037.382,0.48828125,26.3671875,16.11328125,37.109375,34.1796875
1508291860041.2883,-1.46484375,26.85546875,7.32421875,39.0625,32.2265625
1508291860045.1946,6.8359375,27.34375,10.25390625,44.43359375,18.5546875
1508291860049.1008,4.8828125,26.3671875,23.92578125,39.55078125,30.76171875
1508291860053.007,-8.7890625,25.390625,18.06640625,27.83203125,10.7421875
1508291860056.9133,1.953125,24.90234375,29.78515625,37.59765625,18.5546875
1508291860058.9983,13.671875,20.01953125,49.8046875,48.33984375,69.82421875
1508291860062.9045,0.9765625,16.11328125,47.8515625,44.43359375,70.3125
1508291860066.8108,-14.6484375,21.97265625,28.80859375,22.94921875,67.87109375
1508291860070.717,-1.46484375,26.85546875,20.99609375,26.3671875,40.52734375
1508291860074.6233,16.11328125,22.94921875,34.1796875,37.109375,53.22265625
1508291860078.5295,10.25390625,24.4140625,36.1328125,38.57421875,54.19921875
1508291860082.4358,2.44140625,30.2734375,24.90234375,29.296875,10.7421875
1508291860086.342,0.0,28.80859375,30.76171875,22.94921875,39.55078125
1508291860090.2483,6.34765625,25.390625,52.734375,37.109375,76.171875
1508291860094.1545,13.671875,24.90234375,55.6640625,42.96875,67.3828125
1508291860098.0608,0.48828125,23.4375,45.8984375,27.34375,25.390625
1508291860101.967,-11.23046875,22.94921875,35.15625,18.5546875,10.25390625
1508291860104.029,-2.44140625,23.4375,36.62109375,33.69140625,7.8125
1508291860107.9353,3.41796875,22.94921875,37.59765625,46.875,12.20703125
1508291860111.8416,4.8828125,27.83203125,26.85546875,41.015625,32.71484375
1508291860115.7478,1.46484375,26.85546875,22.4609375,35.64453125,27.83203125
1508291860119.654,-6.8359375,20.99609375,26.3671875,31.73828125,3.90625
1508291860123.5603,-15.13671875,20.01953125,23.4375,31.73828125,15.13671875
1508291860127.4666,-9.27734375,20.5078125,15.625,24.90234375,-1.46484375
1508291860131.3728,-11.71875,22.94921875,23.4375,3.90625,4.39453125
1508291860135.279,-11.23046875,22.4609375,33.203125,18.06640625,43.9453125
1508291860139.1853,-0.48828125,19.04296875,26.3671875,30.2734375,26.85546875
1508291860143.0916,-8.30078125,15.13671875,23.92578125,21.97265625,8.7890625
1508291860146.9978,-19.53125,17.578125,25.87890625,11.23046875,30.2734375
1508291860149.0627,-20.01953125,18.5546875,25.87890625,8.30078125,49.31640625
1508291860152.969,-0.48828125,15.625,17.578125,23.92578125,32.2265625
1508291860156.8752,6.8359375,18.06640625,20.5078125,31.25,30.2734375
1508291860160.7815,2.9296875,22.94921875,28.80859375,24.4140625,4.8828125
1508291860164.6877,5.859375,24.4140625,27.34375,26.3671875,18.5546875
1508291860168.594,8.7890625,19.04296875,25.390625,36.1328125,24.90234375
1508291860172.5002,13.671875,20.99609375,28.3203125,26.85546875,19.53125
1508291860176.4065,4.8828125,26.3671875,35.15625,21.484375,20.99609375
1508291860180.3127,-6.34765625,24.4140625,28.3203125,23.4375,-33.203125
1508291860184.219,4.39453125,22.94921875,25.390625,28.80859375,-14.6484375
1508291860188.1252,15.13671875,20.5078125,29.78515625,37.109375,41.50390625
1508291860192.0315,13.18359375,16.11328125,29.78515625,33.69140625,31.25
1508291860209.1316,5.37109375,16.11328125,21.484375,29.296875,23.92578125
1508291860213.0378,7.32421875,16.6015625,18.06640625,26.3671875,32.71484375
1508291860216.944,16.11328125,14.6484375,24.4140625,27.83203125,32.71484375
1508291860220.8503,14.16015625,14.16015625,24.90234375,27.34375,34.66796875
1508291860224.7566,2.9296875,15.625,19.04296875,15.625,11.23046875
1508291860228.6628,-2.9296875,18.06640625,22.94921875,25.390625,5.37109375
1508291860232.569,6.34765625,16.6015625,24.4140625,40.0390625,24.4140625
1508291860236.4753,12.6953125,17.578125,28.3203125,36.1328125,22.94921875
1508291860240.3816,9.27734375,20.01953125,28.3203125,34.66796875,34.66796875
1508291860244.2878,2.44140625,22.4609375,13.671875,28.80859375,30.2734375
1508291860248.194,3.90625,26.3671875,24.4140625,26.3671875,12.20703125
1508291860252.1003,7.32421875,23.92578125,35.64453125,32.71484375,44.921875
1508291860254.138,6.8359375,22.94921875,29.78515625,30.76171875,33.203125
1508291860258.0442,-0.48828125,28.3203125,28.80859375,13.18359375,1.46484375
1508291860261.9504,4.8828125,32.71484375,36.1328125,12.20703125,12.20703125
1508291860265.8567,15.13671875,32.71484375,41.9921875,29.78515625,20.5078125
1508291860269.763,14.6484375,32.71484375,29.78515625,23.4375,6.34765625
1508291860273.6692,3.90625,29.78515625,13.671875,3.90625,-0.48828125
1508291860277.5754,-1.953125,27.34375,13.18359375,2.9296875,-8.7890625
1508291860281.4817,7.8125,29.78515625,21.97265625,14.16015625,18.5546875
1508291860285.388,5.37109375,27.34375,19.53125,11.71875,59.5703125
1508291860289.2942,-9.27734375,22.4609375,11.23046875,-5.859375,29.296875
1508291860293.2004,-12.20703125,22.94921875,18.5546875,1.953125,32.71484375
1508291860297.1067,4.39453125,24.90234375,16.6015625,20.01953125,57.6171875
1508291860299.1675,16.6015625,24.90234375,7.8125,21.97265625,62.5
1508291860303.0737,2.44140625,26.3671875,11.71875,15.625,52.734375
1508291860306.98,-6.8359375,28.80859375,11.71875,5.37109375,18.06640625
1508291860310.8862,4.8828125,25.390625,2.44140625,8.30078125,18.5546875
1508291860314.7925,12.6953125,25.87890625,-4.39453125,9.27734375,19.53125
1508291860318.6987,2.9296875,28.80859375,-4.8828125,3.90625,27.34375
1508291860322.605,-3.41796875,24.4140625,4.8828125,-0.48828125,-1.953125
1508291860326.5112,1.953125,22.94921875,14.6484375,10.25390625,3.41796875
1508291860330.4175,11.23046875,23.4375,8.30078125,15.625,4.39453125
1508291860334.3237,11.23046875,21.97265625,8.30078125,17.08984375,-40.0390625
1508291860338.23,8.30078125,21.484375,19.04296875,25.87890625,-43.9453125
1508291860342.1362,8.30078125,20.99609375,16.11328125,31.25,-30.2734375
1508291860344.3403,15.625,22.94921875,11.23046875,39.55078125,2.9296875
1508291860348.2466,14.16015625,23.4375,8.7890625,43.45703125,20.99609375
1508291860352.1528,5.37109375,22.4609375,3.90625,41.015625,21.97265625
1508291860356.059,-4.39453125,21.484375,-9.27734375,41.015625,-6.34765625
1508291860359.9653,0.9765625,24.90234375,-8.30078125,56.640625,-6.8359375
1508291860363.8716,9.27734375,29.78515625,-1.953125,62.01171875,-10.7421875
1508291860367.7778,-1.953125,30.76171875,7.8125,52.734375,30.2734375
1508291860371.684,-17.08984375,31.73828125,5.859375,43.45703125,17.08984375
1508291860375.5903,-5.859375,31.25,2.9296875,41.9921875,-39.0625
1508291860379.4966,5.37109375,28.80859375,23.4375,54.6875,11.71875
1508291860383.4028,-7.8125,27.34375,22.4609375,55.17578125,40.0390625
1508291860387.309,-18.5546875,31.25,9.765625,39.55078125,34.1796875
1508291860389.3687,-15.13671875,32.2265625,6.34765625,37.59765625,41.9921875
1508291860393.275,2.44140625,33.69140625,4.8828125,50.29296875,36.1328125
1508291860397.1812,4.39453125,34.1796875,2.9296875,55.17578125,58.10546875
1508291860401.0874,-7.32421875,32.71484375,5.859375,50.78125,60.05859375
1508291860404.9937,-7.32421875,35.64453125,8.7890625,49.31640625,50.78125
1508291860408.9,2.44140625,36.62109375,11.23046875,51.7578125,42.48046875
1508291860412.8062,8.7890625,31.25,21.97265625,49.8046875,35.15625
1508291860416.7124,-8.7890625,25.390625,12.20703125,36.62109375,19.53125
1508291860420.6187,-22.4609375,28.3203125,13.671875,31.25,-16.11328125
1508291860424.525,-7.8125,29.296875,30.2734375,50.78125,-12.20703125
1508291860428.4312,-4.8828125,25.87890625,16.11328125,53.7109375,20.5078125
1508291860432.3374,-1.953125,27.83203125,4.39453125,45.8984375,36.1328125
1508291860433.9026,-4.8828125,30.76171875,13.671875,39.55078125,49.8046875
1508291860437.8088,0.9765625,38.0859375,18.5546875,46.38671875,76.171875
1508291860441.715,10.25390625,40.52734375,10.7421875,56.640625,33.69140625
1508291860445.6213,2.44140625,35.64453125,1.46484375,48.828125,-5.859375
1508291860449.5276,-4.8828125,36.1328125,0.0,37.59765625,8.7890625
1508291860453.4338,0.48828125,37.109375,2.9296875,32.71484375,7.8125
1508291860457.34,11.71875,36.62109375,7.8125,35.15625,56.15234375
1508291860461.2463,13.18359375,35.64453125,12.20703125,28.3203125,11.71875
1508291860465.1526,-0.9765625,33.203125,20.01953125,27.34375,-18.06640625
1508291860469.0588,-7.8125,33.203125,18.06640625,36.1328125,49.31640625
1508291860472.965,4.8828125,32.2265625,14.6484375,44.43359375,38.0859375
1508291860476.8713,9.765625,24.90234375,20.5078125,41.50390625,-3.90625
1508291860478.9324,5.859375,24.4140625,25.390625,32.71484375,-14.16015625
1508291860482.8386,-0.9765625,28.80859375,21.97265625,27.83203125,-7.32421875
1508291860486.7449,2.9296875,32.2265625,20.01953125,35.15625,18.5546875
1508291860490.6511,10.7421875,32.2265625,21.484375,41.50390625,20.5078125
1508291860494.5574,4.39453125,30.2734375,23.4375,37.59765625,-1.953125
1508291860498.4636,-9.765625,30.76171875,19.04296875,33.203125,-0.48828125
1508291860502.3699,3.41796875,28.80859375,8.30078125,33.69140625,8.30078125
1508291860506.2761,18.06640625,26.85546875,11.71875,37.59765625,2.44140625
1508291860510.1824,14.6484375,24.90234375,23.92578125,43.9453125,18.5546875
1508291860514.0886,4.39453125,21.484375,20.99609375,34.1796875,24.4140625
1508291860517.9949,-4.8828125,20.99609375,18.5546875,25.87890625,20.5078125
1508291860521.9011,3.90625,25.390625,31.73828125,32.2265625,32.2265625
1508291860524.4644,11.71875,24.90234375,34.1796875,34.1796875,-3.41796875
1508291860528.3706,6.8359375,24.4140625,20.5078125,25.390625,-20.99609375
1508291860532.2769,-4.39453125,28.80859375,19.53125,20.01953125,-30.76171875
1508291860536.183,1.953125,28.3203125,32.2265625,30.76171875,-57.12890625
1508291860540.0894,11.23046875,25.87890625,33.69140625,34.1796875,-34.66796875
1508291860543.9956,3.41796875,28.3203125,20.99609375,19.04296875,-1.46484375
1508291860547.9019,-4.8828125,29.296875,20.99609375,4.39453125,-16.6015625
1508291860551.808,2.9296875,26.85546875,41.015625,18.5546875,0.48828125
1508291860555.7144,15.625,27.83203125,29.296875,29.78515625,-19.04296875
1508291860559.6206,8.30078125,30.2734375,15.13671875,22.94921875,-30.76171875
1508291860563.5269,-4.39453125,33.203125,21.97265625,16.11328125,3.90625
1508291860567.433,5.859375,36.62109375,23.92578125,20.01953125,-5.37109375
1508291860584.2576,15.13671875,36.62109375,27.34375,26.3671875,-2.44140625
1508291860588.1638,12.20703125,33.203125,24.4140625,14.16015625,35.64453125
1508291860592.07,-4.39453125,33.69140625,29.296875,1.953125,40.52734375
1508291860595.9763,-10.7421875,35.64453125,34.1796875,-4.8828125,8.30078125
1508291860599.8826,3.90625,36.1328125,30.2734375,0.0,-9.27734375
1508291860603.7888,7.32421875,32.71484375,29.78515625,1.953125,-17.578125
1508291860607.695,-5.37109375,26.3671875,27.83203125,-9.765625,-40.52734375
1508291860611.6013,-13.18359375,25.87890625,24.90234375,-12.20703125,-17.08984375
1508291860615.5076,0.9765625,28.3203125,26.85546875,2.44140625,-15.13671875
1508291860619.4138,6.34765625,31.25,21.484375,0.9765625,-60.546875
1508291860623.32,-6.34765625,32.2265625,21.484375,-9.765625,-27.34375
1508291860627.2263,-11.71875,30.2734375,16.11328125,-12.20703125,-22.4609375
1508291860629.2898,-9.765625,27.83203125,12.20703125,-9.765625,-15.13671875
1508291860633.196,-2.44140625,28.3203125,23.4375,3.41796875,1.953125
1508291860637.1023,3.41796875,27.34375,23.92578125,5.37109375,-27.83203125
1508291860641.0085,-5.859375,25.390625,12.20703125,-3.41796875,-39.0625
1508291860644.9148,-9.765625,29.78515625,2.44140625,2.44140625,-48.33984375
1508291860648.821,0.9765625,30.76171875,0.48828125,10.7421875,-3.90625
1508291860652.7273,5.37109375,32.2265625,2.44140625,13.18359375,22.4609375
1508291860656.6335,-6.34765625,34.66796875,7.8125,8.30078125,16.6015625
1508291860660.5398,-11.23046875,36.1328125,1.46484375,8.30078125,11.23046875
1508291860664.446,2.44140625,33.203125,1.953125,13.18359375,-18.06640625
1508291860668.3523,12.6953125,28.80859375,20.99609375,15.625,-6.8359375
1508291860672.2585,4.8828125,29.296875,20.99609375,13.671875,39.0625
1508291860673.921,-2.9296875,30.76171875,11.23046875,1.953125,38.0859375
1508291860677.8271,4.39453125,29.78515625,8.30078125,7.32421875,8.30078125
1508291860681.7334,7.32421875,26.85546875,7.8125,15.13671875,-19.04296875
1508291860685.6396,-1.953125,28.3203125,5.37109375,5.859375,-34.1796875
1508291860689.546,-13.18359375,28.80859375,1.46484375,-3.90625,6.8359375
1508291860693.4521,-0.9765625,25.390625,0.0,-1.953125,16.11328125
1508291860697.3584,8.7890625,24.90234375,12.6953125,6.8359375,4.8828125
1508291860701.2646,8.7890625,26.3671875,29.78515625,20.01953125,23.92578125
1508291860705.171,4.39453125,22.4609375,24.4140625,27.34375,7.8125
1508291860709.0771,4.8828125,18.5546875,25.87890625,27.83203125,0.9765625
1508291860712.9834,11.71875,23.4375,40.52734375,37.109375,20.5078125
1508291860716.8896,10.25390625,26.85546875,30.2734375,33.203125,17.08984375
1508291860718.9531,-4.39453125,28.80859375,25.390625,27.83203125,3.41796875
1508291860722.8594,-11.23046875,29.78515625,28.80859375,32.71484375,5.37109375
1508291860726.7656,2.44140625,27.34375,30.76171875,40.0390625,10.25390625
1508291860730.6719,6.34765625,27.34375,24.90234375,30.2734375,-5.37109375
1508291860734.5781,1.953125,28.3203125,24.90234375,19.04296875,-12.6953125
1508291860738.4844,-10.7421875,28.3203125,32.71484375,13.671875,2.44140625
1508291860742.3906,-8.30078125,28.3203125,29.296875,20.99609375,-4.39453125
1508291860746.2969,1.953125,27.34375,20.01953125,25.87890625,-1.46484375
1508291860750.2031,-3.90625,25.87890625,21.484375,19.04296875,7.32421875
1508291860754.1094,-6.34765625,28.80859375,32.2265625,15.13671875,7.32421875
1508291860758.0156,3.41796875,30.2734375,33.203125,26.3671875,-5.37109375
1508291860761.9219,15.13671875,27.83203125,25.87890625,32.71484375,-8.30078125
1508291860763.987,12.6953125,27.34375,27.34375,19.53125,16.11328125
1508291860767.8933,4.39453125,27.83203125,40.0390625,19.53125,10.7421875
1508291860771.7996,0.48828125,24.90234375,43.45703125,18.5546875,10.7421875
1508291860775.7058,9.27734375,28.3203125,41.50390625,19.04296875,-4.8828125
1508291860779.612,14.16015625,33.203125,38.57421875,27.83203125,-12.20703125
1508291860783.5183,0.0,34.66796875,28.80859375,24.90234375,5.37109375
1508291860787.4246,-6.34765625,32.71484375,20.99609375,17.08984375,8.30078125
1508291860791.3308,0.0,27.83203125,24.90234375,20.5078125,-17.578125
1508291860795.237,5.859375,27.34375,31.73828125,20.5078125,-5.37109375
1508291860799.1433,5.37109375,28.3203125,38.0859375,19.53125,12.20703125
1508291860803.0496,-8.30078125,27.83203125,28.3203125,12.20703125,-23.92578125
1508291860806.9558,-5.859375,21.97265625,23.4375,15.625,-14.16015625
1508291860809.0498,0.0,21.484375,33.69140625,24.4140625,18.5546875
1508291860812.956,-2.9296875,20.5078125,36.62109375,20.99609375,25.390625
1508291860816.8623,-8.30078125,16.11328125,16.6015625,8.30078125,7.32421875
1508291860820.7686,-7.32421875,19.53125,5.859375,12.20703125,27.34375
1508291860824.6748,0.48828125,25.390625,20.99609375,30.2734375,45.8984375
1508291860828.581,2.44140625,21.97265625,13.18359375,26.85546875,-2.9296875
1508291860832.4873,-9.765625,17.08984375,-0.48828125,7.32421875,3.41796875
1508291860836.3936,-15.13671875,20.01953125,7.8125,2.44140625,20.99609375
1508291860840.2998,-0.48828125,20.99609375,26.85546875,19.04296875,-7.32421875
1508291860844.206,-2.9296875,17.578125,32.2265625,27.83203125,24.90234375
1508291860848.1123,-0.48828125,20.5078125,22.4609375,18.06640625,29.78515625
1508291860852.0186,-0.48828125,24.90234375,15.13671875,6.8359375,-1.46484375
1508291860854.0515,0.9765625,26.85546875,20.99609375,15.625,-9.765625
1508291860857.9578,-1.46484375,26.3671875,23.92578125,17.08984375,-15.625
1508291860861.864,-4.8828125,23.92578125,21.97265625,14.6484375,2.9296875
1508291860865.7703,-9.765625,18.06640625,23.4375,17.578125,4.8828125
1508291860869.6765,-9.765625,18.06640625,20.01953125,19.04296875,-16.11328125
1508291860873.5828,7.32421875,23.4375,13.671875,26.85546875,-31.25
1508291860877.489,9.765625,25.87890625,3.41796875,20.01953125,-58.59375
1508291860881.3953,-7.32421875,26.3671875,7.32421875,8.7890625,-57.6171875
1508291860885.3015,-7.32421875,25.390625,19.04296875,22.94921875,-40.0390625
1508291860889.2078,1.46484375,24.90234375,13.18359375,33.69140625,-25.87890625
1508291860893.114,-3.41796875,22.94921875,10.7421875,23.4375,11.71875
1508291860897.0203,-8.30078125,22.94921875,11.23046875,15.625,13.671875
1508291860899.083,-10.25390625,20.5078125,18.5546875,22.4609375,-1.46484375
1508291860902.9893,-3.41796875,18.5546875,21.97265625,30.76171875,17.08984375
1508291860906.8955,0.9765625,22.94921875,23.92578125,33.203125,46.875
1508291860910.8018,0.0,27.83203125,25.87890625,27.34375,31.25
1508291860914.708,2.9296875,31.25,22.4609375,26.85546875,18.5546875
1508291860918.6143,2.44140625,29.78515625,11.23046875,33.203125,10.7421875
1508291860922.5205,-4.39453125,27.34375,12.6953125,26.3671875,-18.06640625
1508291860926.4268,-8.30078125,23.4375,35.15625,26.85546875,18.06640625
1508291860930.333,-15.13671875,21.97265625,34.1796875,24.90234375,8.7890625
1508291860934.2393,-11.71875,22.4609375,28.80859375,32.2265625,-39.0625
1508291860938.1455,-10.7421875,19.53125,26.85546875,43.45703125,-11.71875
1508291860942.0518,-5.859375,21.484375,27.34375,38.57421875,-6.8359375
1508291860959.1245,-6.8359375,29.78515625,25.87890625,32.71484375,-26.3671875
1508291860963.0308,-20.01953125,31.73828125,22.4609375,24.90234375,-27.83203125
1508291860966.937,-10.7421875,27.83203125,25.390625,25.87890625,-10.25390625
1508291860970.8433,-5.37109375,28.80859375,23.92578125,28.3203125,3.41796875
1508291860974.7495,-21.484375,29.296875,16.6015625,17.578125,5.37109375
1508291860978.6558,-20.99609375,25.87890625,11.23046875,14.6484375,21.484375
1508291860982.562,-4.8828125,25.390625,25.87890625,28.80859375,25.87890625
1508291860986.4683,-0.48828125,27.83203125,39.0625,44.921875,52.24609375
1508291860990.3745,0.9765625,28.80859375,37.109375,40.52734375,41.9921875
1508291860994.2808,-3.41796875,28.3203125,37.59765625,20.99609375,-17.578125
1508291860998.187,1.46484375,29.78515625,42.48046875,26.85546875,-21.484375
1508291861002.0933,7.32421875,28.3203125,51.26953125,41.50390625,-4.39453125
1508291861004.1558,0.48828125,28.80859375,47.8515625,40.0390625,-12.20703125
1508291861008.062,-8.30078125,32.71484375,38.57421875,29.78515625,2.9296875
1508291861011.9683,1.46484375,35.15625,41.9921875,40.52734375,29.78515625
1508291861015.8745,14.16015625,35.64453125,40.0390625,56.640625,56.15234375
1508291861019.7808,12.20703125,35.15625,24.4140625,46.875,30.2734375
1508291861023.687,0.9765625,32.2265625,18.5546875,32.71484375,14.6484375
1508291861027.5933,0.9765625,28.3203125,25.87890625,27.83203125,37.109375
1508291861031.4995,9.27734375,28.80859375,39.0625,35.15625,58.59375
1508291861035.4058,7.8125,27.34375,42.48046875,41.50390625,42.96875
1508291861039.312,-5.37109375,20.01953125,35.64453125,29.78515625,11.71875
1508291861043.2183,-13.18359375,20.99609375,40.0390625,28.3203125,9.27734375
1508291861047.1245,7.8125,28.80859375,39.0625,40.52734375,32.71484375
1508291861049.1875,11.71875,32.2265625,38.57421875,36.62109375,42.96875
1508291861053.0938,5.859375,34.66796875,33.203125,31.73828125,23.92578125
1508291861057.0,7.32421875,33.203125,22.4609375,27.34375,-18.5546875
1508291861060.9062,4.39453125,28.3203125,23.92578125,27.34375,-43.9453125
1508291861064.8125,10.25390625,27.34375,27.83203125,35.15625,-6.34765625
1508291861068.7188,10.25390625,27.83203125,20.5078125,37.59765625,11.71875
1508291861072.625,0.0,23.4375,23.92578125,28.3203125,10.25390625
1508291861076.5312,4.39453125,24.90234375,36.1328125,31.73828125,43.45703125
1508291861080.4375,15.625,30.2734375,26.85546875,35.64453125,5.37109375
1508291861084.3438,10.7421875,28.80859375,25.87890625,31.25,-20.5078125
1508291861088.25,4.8828125,31.73828125,28.3203125,34.1796875,23.4375
1508291861092.1562,0.48828125,36.1328125,20.01953125,31.73828125,-7.8125
1508291861094.2192,0.9765625,31.73828125,28.3203125,37.59765625,-2.9296875
1508291861098.1255,0.9765625,27.34375,37.59765625,40.0390625,19.04296875
1508291861102.0317,-3.41796875,27.34375,34.1796875,31.25,16.6015625
1508291861105.938,-2.44140625,26.85546875,20.01953125,24.90234375,-6.8359375
1508291861109.8442,6.34765625,25.87890625,18.06640625,33.69140625,-40.52734375
1508291861113.7505,19.04296875,26.3671875,26.3671875,42.48046875,-30.2734375
1508291861117.6567,16.6015625,27.83203125,33.203125,35.15625,1.46484375
1508291861121.563,3.41796875,27.83203125,18.06640625,24.90234375,-6.8359375
1508291861125.4692,2.44140625,28.80859375,8.30078125,22.94921875,-41.015625
1508291861129.3755,3.41796875,25.390625,31.73828125,31.25,-2.44140625
1508291861133.2817,-0.48828125,20.01953125,28.3203125,34.66796875,-8.7890625
1508291861137.188,-10.7421875,22.4609375,10.7421875,25.87890625,-54.19921875
1508291861139.2527,-2.9296875,24.4140625,11.71875,32.2265625,-36.1328125
1508291861143.159,1.953125,22.4609375,16.11328125,43.45703125,23.92578125
1508291861147.0652,1.46484375,25.87890625,12.20703125,41.015625,30.2734375
1508291861150.9714,7.32421875,29.296875,4.39453125,26.85546875,3.41796875
1508291861154.8777,3.41796875,29.78515625,-0.9765625,22.94921875,-13.671875
1508291861158.784,10.25390625,28.80859375,3.90625,36.62109375,-20.99609375
1508291861162.6902,14.16015625,30.2734375,11.71875,41.50390625,-22.4609375
1508291861166.5964,4.8828125,32.71484375,5.37109375,33.69140625,-23.4375
1508291861170.5027,0.0,33.203125,10.25390625,27.83203125,12.20703125
1508291861174.409,12.20703125,31.25,21.484375,45.8984375,9.27734375
1508291861178.3152,20.01953125,30.76171875,8.7890625,51.26953125,8.30078125
1508291861182.2214,7.32421875,29.78515625,0.0,41.015625,51.7578125
1508291861184.2854,-4.8828125,27.83203125,2.9296875,25.87890625,33.69140625
1508291861188.1917,-3.90625,25.390625,12.20703125,26.3671875,13.18359375
1508291861192.098,0.9765625,24.90234375,11.71875,35.15625,9.27734375
1508291861196.0042,-6.8359375,29.78515625,0.9765625,30.2734375,15.625
1508291861199.9104,-14.6484375,27.83203125,-1.46484375,26.85546875,22.4609375
1508291861203.8167,-6.34765625,26.85546875,-7.32421875,31.25,17.08984375
1508291861207.723,1.953125,28.3203125,-2.9296875,41.50390625,35.64453125
1508291861211.6292,0.48828125,27.34375,-1.46484375,28.3203125,56.15234375
1508291861215.5354,-10.25390625,28.3203125,-3.90625,15.625,13.18359375
1508291861219.4417,-8.7890625,28.80859375,-2.44140625,25.390625,-28.3203125
1508291861223.348,6.8359375,29.78515625,-1.953125,32.2265625,1.953125
1508291861227.2542,16.6015625,30.76171875,-2.9296875,37.59765625,34.1796875
1508291861229.3174,13.671875,31.73828125,-10.25390625,40.52734375,41.015625
1508291861233.2236,11.23046875,29.78515625,-18.5546875,42.48046875,7.32421875
1508291861237.13,31.73828125,27.83203125,-14.6484375,58.10546875,0.9765625
1508291861241.0361,30.2734375,30.76171875,-4.39453125,72.265625,37.109375
1508291861244.9424,2.9296875,28.3203125,0.0,59.5703125,3.90625
1508291861248.8486,-19.04296875,25.390625,-4.8828125,38.0859375,11.71875
1508291861252.755,-18.06640625,24.90234375,-15.13671875,32.2265625,-19.04296875
1508291861256.6611,2.44140625,27.34375,-5.37109375,44.43359375,-68.84765625
1508291861260.5674,2.9296875,28.80859375,7.8125,54.19921875,-9.765625
1508291861264.4736,-5.859375,26.85546875,-6.8359375,44.921875,15.625
1508291861268.38,-5.37109375,26.3671875,-11.71875,42.96875,1.46484375
1508291861272.2861,-0.9765625,26.3671875,-3.41796875,48.828125,-3.41796875
1508291861274.3474,-5.859375,24.4140625,-2.9296875,42.48046875,-15.625
1508291861278.2537,-7.8125,26.3671875,3.41796875,38.57421875,-5.859375
1508291861282.16,-5.859375,23.92578125,8.30078125,36.62109375,34.1796875
1508291861286.0662,0.48828125,20.99609375,13.671875,39.0625,44.921875
1508291861289.9724,5.37109375,23.92578125,17.578125,42.48046875,10.7421875
1508291861293.8787,-0.48828125,24.90234375,14.6484375,40.52734375,16.11328125
1508291861297.785,-9.765625,26.3671875,14.16015625,25.390625,-23.4375
1508291861301.6912,0.0,27.34375,38.0859375,34.1796875,-32.71484375
1508291861305.5974,8.7890625,25.87890625,46.875,48.33984375,-7.8125
1508291861309.5037,-2.9296875,24.90234375,35.15625,38.0859375,7.8125
1508291861313.41,-8.30078125,22.94921875,35.64453125,33.69140625,31.73828125
1508291861317.3162,-1.46484375,19.53125,39.55078125,42.96875,37.59765625
1508291861333.8894,8.30078125,20.99609375,44.43359375,49.8046875,44.921875
1508291861337.7957,16.11328125,23.4375,40.0390625,45.8984375,41.015625
1508291861341.702,5.37109375,24.90234375,28.3203125,36.62109375,-6.34765625
1508291861345.6082,-2.9296875,28.80859375,28.80859375,30.2734375,-9.27734375
1508291861349.5144,8.30078125,24.90234375,31.73828125,39.0625,-7.8125
1508291861353.4207,8.7890625,22.4609375,33.69140625,36.1328125,-15.625
1508291861357.327,5.37109375,28.3203125,38.57421875,24.90234375,39.0625
1508291861361.2332,3.90625,27.83203125,37.109375,26.85546875,33.69140625
1508291861365.1394,15.625,29.296875,37.109375,46.38671875,-7.32421875
1508291861369.0457,20.99609375,31.25,23.4375,40.52734375,-40.0390625
1508291861372.952,11.23046875,26.85546875,21.484375,26.3671875,-42.96875
1508291861376.8582,-2.9296875,27.83203125,30.2734375,31.25,-16.6015625
1508291861378.9426,-0.48828125,30.2734375,18.06640625,27.83203125,-15.13671875
1508291861382.8489,12.20703125,28.3203125,12.6953125,28.80859375,-4.39453125
1508291861386.7551,9.27734375,21.97265625,14.16015625,35.64453125,15.625
1508291861390.6614,2.9296875,23.92578125,7.32421875,25.390625,3.90625
1508291861394.5676,5.859375,26.85546875,1.46484375,25.87890625,-17.578125
1508291861398.4739,14.6484375,28.80859375,0.9765625,41.50390625,5.859375
1508291861402.3801,12.6953125,31.25,-0.48828125,43.45703125,20.01953125
1508291861406.2864,1.46484375,33.69140625,5.859375,36.62109375,24.90234375
1508291861410.1926,-0.48828125,37.59765625,1.953125,32.71484375,32.71484375
1508291861414.0989,2.9296875,32.2265625,3.90625,37.109375,27.34375
1508291861418.0051,5.859375,28.3203125,24.4140625,40.0390625,7.32421875
1508291861421.9114,-0.48828125,25.87890625,23.4375,41.50390625,-2.44140625
1508291861423.9539,-6.8359375,25.390625,16.6015625,36.1328125,0.9765625
1508291861427.86,10.7421875,29.296875,19.53125,37.109375,9.765625
1508291861431.7664,19.04296875,28.3203125,18.06640625,44.921875,16.11328125
1508291861435.6726,13.671875,29.296875,13.671875,39.0625,22.4609375
1508291861439.5789,0.48828125,31.25,14.6484375,27.83203125,23.4375
1508291861443.485,-3.90625,28.3203125,19.04296875,28.3203125,-7.32421875
1508291861447.3914,9.765625,26.85546875,21.97265625,34.1796875,-7.32421875
1508291861451.2976,12.20703125,25.390625,18.5546875,33.203125,6.8359375
1508291861455.2039,5.37109375,25.87890625,8.30078125,21.97265625,-21.97265625
1508291861459.11,1.953125,28.80859375,12.6953125,26.85546875,-50.29296875
1508291861463.0164,10.7421875,32.2265625,25.87890625,48.33984375,-19.04296875
1508291861466.9226,18.06640625,34.1796875,16.11328125,48.828125,-4.8828125
1508291861468.9856,4.8828125,34.1796875,11.23046875,38.57421875,4.8828125
1508291861472.8918,-5.859375,33.69140625,19.04296875,29.296875,-12.20703125
1508291861476.798,11.23046875,35.15625,26.85546875,40.52734375,-35.15625
1508291861480.7043,18.06640625,31.25,24.4140625,48.33984375,-40.0390625
1508291861484.6106,4.8828125,25.87890625,24.4140625,40.52734375,-42.96875
1508291861488.5168,0.48828125,30.76171875,29.296875,33.69140625,-21.484375
1508291861492.423,17.08984375,34.1796875,29.78515625,40.0390625,-20.5078125
1508291861496.3293,24.90234375,31.73828125,26.3671875,45.8984375,-38.0859375
1508291861500.2356,7.32421875,32.2265625,27.34375,33.203125,-41.015625
1508291861504.1418,-7.8125,32.71484375,36.62109375,32.2265625,2.44140625
1508291861508.048,-7.32421875,27.34375,38.57421875,44.43359375,7.8125
1508291861511.9543,6.34765625,22.94921875,41.50390625,45.8984375,-26.85546875
1508291861514.02,2.9296875,23.92578125,35.64453125,49.8046875,-5.37109375
1508291861517.9263,-8.7890625,25.87890625,31.73828125,43.45703125,27.83203125
1508291861521.8325,-2.44140625,26.3671875,37.59765625,39.0625,14.16015625
1508291861525.7388,8.30078125,24.90234375,39.0625,44.43359375,4.39453125
1508291861529.645,5.859375,22.94921875,37.109375,40.52734375,5.37109375
1508291861533.5513,-5.37109375,21.97265625,38.57421875,34.1796875,29.296875
1508291861537.4575,-10.7421875,22.94921875,42.48046875,28.3203125,74.70703125
1508291861541.3638,-8.30078125,26.85546875,34.66796875,25.390625,51.26953125
1508291861545.27,-0.9765625,28.80859375,31.25,26.85546875,11.71875
1508291861549.1763,0.9765625,29.296875,34.1796875,33.69140625,31.73828125
1508291861553.0825,-10.7421875,27.83203125,21.484375,32.2265625,28.3203125
1508291861556.9888,-8.30078125,22.4609375,19.53125,31.25,7.8125
1508291861574.0605,8.30078125,23.92578125,25.390625,31.73828125,29.78515625
1508291861577.9668,12.6953125,24.90234375,26.85546875,29.296875,51.7578125
1508291861581.873,1.46484375,21.97265625,21.484375,17.08984375,18.5546875
1508291861585.7793,1.953125,21.97265625,25.87890625,14.16015625,13.671875
1508291861589.6855,8.30078125,22.4609375,40.52734375,23.4375,55.17578125
1508291861593.5918,3.90625,25.390625,42.48046875,21.97265625,48.828125
1508291861597.498,-10.25390625,27.34375,38.57421875,14.16015625,28.80859375
1508291861601.4043,-9.765625,22.94921875,41.015625,15.625,-11.23046875
1508291861605.3105,15.13671875,15.625,54.19921875,39.0625,-13.671875
1508291861609.2168,18.06640625,14.16015625,47.8515625,42.96875,9.765625
1508291861613.123,9.27734375,20.99609375,30.2734375,21.97265625,-7.8125
1508291861617.0293,8.30078125,20.5078125,29.296875,17.578125,-36.1328125
1508291861604.0818,22.4609375,19.53125,44.921875,40.0390625,-11.71875
1508291861607.988,22.94921875,22.94921875,46.875,39.0625,2.9296875
1508291861611.8943,4.8828125,19.53125,41.50390625,20.5078125,11.71875
1508291861615.8005,1.953125,20.5078125,41.9921875,13.18359375,9.27734375
1508291861619.7068,2.9296875,23.92578125,41.50390625,22.94921875,-13.18359375
1508291861623.613,9.27734375,22.94921875,43.45703125,35.64453125,26.85546875
1508291861627.5193,15.13671875,24.4140625,48.828125,28.80859375,15.625
1508291861631.4255,10.25390625,24.4140625,45.8984375,28.80859375,-27.34375
1508291861635.3318,17.578125,26.3671875,40.0390625,39.0625,3.41796875
1508291861639.238,29.296875,28.80859375,38.0859375,46.875,23.4375
1508291861643.1443,29.78515625,27.83203125,24.4140625,36.1328125,-14.6484375
1508291861647.0505,19.53125,24.90234375,36.1328125,22.4609375,-12.6953125
1508291861664.1243,9.765625,21.97265625,57.12890625,20.01953125,-5.37109375
1508291861668.0305,16.6015625,21.484375,48.828125,20.99609375,9.27734375
1508291861671.9368,19.53125,20.5078125,43.45703125,18.5546875,39.55078125
1508291861675.843,9.27734375,18.5546875,40.0390625,13.18359375,45.8984375
1508291861679.7493,0.48828125,19.04296875,25.87890625,11.23046875,43.9453125
1508291861683.6555,8.7890625,19.53125,12.6953125,18.06640625,3.41796875
1508291861687.5618,19.04296875,22.94921875,16.6015625,22.4609375,22.4609375
1508291861691.468,14.16015625,23.92578125,33.69140625,24.4140625,24.90234375
1508291861695.3743,6.34765625,23.92578125,30.76171875,28.80859375,-4.39453125
1508291861699.2805,13.671875,26.3671875,22.94921875,33.69140625,2.9296875
1508291861703.1868,25.390625,24.90234375,35.64453125,39.55078125,17.578125
1508291861707.093,15.625,26.3671875,41.9921875,37.59765625,45.8984375
1508291861724.6692,10.7421875,26.85546875,28.3203125,25.390625,1.953125
1508291861728.5754,5.859375,23.92578125,23.4375,15.13671875,-23.92578125
1508291861732.4817,-1.46484375,21.97265625,24.90234375,16.11328125,22.94921875
1508291861736.388,-1.953125,20.5078125,22.4609375,15.625,58.59375
1508291861740.2942,-5.859375,19.53125,18.06640625,10.7421875,23.92578125
1508291861744.2004,-4.8828125,19.04296875,16.11328125,10.7421875,1.46484375
1508291861748.1067,9.765625,19.53125,16.6015625,21.484375,10.25390625
1508291861752.013,19.04296875,21.97265625,16.6015625,28.80859375,11.71875
1508291861755.9192,13.671875,23.92578125,6.8359375,20.99609375,13.18359375
1508291861759.8254,3.90625,24.90234375,-12.6953125,6.8359375,-32.2265625
1508291861763.7317,18.06640625,23.4375,1.46484375,12.6953125,-20.99609375
1508291861767.638,29.78515625,17.08984375,21.484375,40.0390625,53.7109375
1508291861754.188,15.13671875,20.01953125,9.765625,40.52734375,34.1796875
1508291861758.0942,-3.41796875,28.80859375,-5.37109375,9.765625,3.90625
1508291861762.0005,5.859375,26.3671875,-0.9765625,20.5078125,14.16015625
1508291861765.9067,39.55078125,29.296875,7.8125,58.10546875,6.8359375
1508291861769.813,64.94140625,34.1796875,11.23046875,71.77734375,9.27734375
1508291861773.7192,73.73046875,39.55078125,8.30078125,74.70703125,-18.06640625
1508291861777.6255,81.54296875,44.921875,19.04296875,86.9140625,10.25390625
1508291861781.5317,102.05078125,45.8984375,31.25,109.86328125,23.92578125
1508291861785.438,110.3515625,50.29296875,26.85546875,114.74609375,41.015625
1508291861789.3442,107.421875,51.26953125,24.4140625,114.74609375,69.3359375
1508291861793.2505,108.3984375,47.8515625,20.5078125,119.62890625,40.52734375
1508291861797.1567,116.2109375,43.9453125,19.53125,129.8828125,41.015625
1508291861799.22,120.1171875,41.9921875,16.6015625,135.25390625,-23.4375
1508291861803.1262,111.328125,38.57421875,24.4140625,120.60546875,-48.828125
1508291861807.0325,95.703125,36.1328125,38.57421875,113.76953125,-1.46484375
1508291861810.9387,98.14453125,39.0625,29.296875,125.9765625,-26.85546875
1508291861814.845,107.421875,39.55078125,24.90234375,130.37109375,-20.5078125
1508291861818.7512,101.07421875,39.0625,17.08984375,121.09375,28.80859375
1508291861822.6575,78.61328125,39.55078125,0.9765625,100.09765625,14.6484375
1508291861826.5637,77.1484375,38.57421875,4.39453125,100.09765625,-19.53125
1508291861830.47,86.42578125,36.1328125,5.37109375,104.4921875,-47.8515625
1508291861834.3762,83.49609375,32.71484375,13.671875,94.23828125,-35.64453125
1508291861838.2825,74.70703125,32.2265625,26.85546875,95.21484375,-12.20703125
1508291861842.1887,56.15234375,30.2734375,22.94921875,91.30859375,-28.3203125
1508291861844.2522,61.03515625,28.80859375,28.80859375,92.7734375,-9.765625
1508291861848.1584,65.91796875,29.296875,33.69140625,99.609375,31.73828125
1508291861852.0647,55.17578125,31.73828125,25.87890625,92.28515625,14.6484375
1508291861855.971,43.9453125,34.1796875,18.06640625,76.171875,-13.18359375
1508291861859.8772,47.8515625,27.34375,21.97265625,84.9609375,35.15625
1508291861863.7834,55.6640625,26.85546875,20.01953125,87.890625,31.25
1508291861867.6897,46.875,28.80859375,20.5078125,64.453125,34.1796875
1508291861871.596,27.34375,24.4140625,14.16015625,43.45703125,22.94921875
1508291861875.5022,33.69140625,24.90234375,9.765625,46.38671875,5.37109375
1508291861879.4084,40.52734375,26.85546875,25.390625,57.6171875,26.85546875
1508291861883.3147,34.1796875,27.34375,19.04296875,61.5234375,6.34765625
1508291861887.221,22.4609375,28.3203125,13.671875,54.6875,11.23046875
1508291861889.284,19.53125,27.83203125,21.97265625,53.22265625,12.20703125
1508291861893.1902,38.0859375,29.296875,22.94921875,65.4296875,-20.01953125
1508291861897.0964,37.109375,31.25,25.87890625,55.6640625,27.83203125
1508291861901.0027,23.4375,31.73828125,29.78515625,39.0625,69.3359375
1508291861904.909,11.23046875,30.76171875,20.99609375,41.015625,48.33984375
1508291861908.8152,20.01953125,27.83203125,11.71875,50.78125,33.69140625
1508291861912.7214,30.76171875,29.296875,20.99609375,54.19921875,51.7578125
1508291861916.6277,18.5546875,32.71484375,17.578125,41.015625,59.08203125
1508291861920.534,8.7890625,33.69140625,9.27734375,26.3671875,10.25390625
1508291861924.4402,14.16015625,33.69140625,14.6484375,40.52734375,-16.11328125
1508291861928.3464,16.6015625,32.2265625,14.6484375,45.41015625,18.06640625
1508291861932.2527,14.16015625,28.3203125,20.01953125,29.78515625,41.50390625
1508291861934.3162,7.32421875,26.3671875,24.90234375,21.97265625,38.57421875
1508291861938.2224,7.8125,29.78515625,28.80859375,31.73828125,36.1328125
1508291861942.1287,18.06640625,32.71484375,33.203125,45.41015625,14.16015625
1508291861946.035,18.5546875,33.69140625,26.85546875,45.8984375,2.9296875
1508291861949.9412,15.625,36.62109375,19.53125,42.48046875,9.27734375
1508291861953.8474,10.25390625,37.109375,18.5546875,41.9921875,4.39453125
1508291861957.7537,19.53125,31.73828125,21.97265625,47.8515625,0.0
1508291861961.66,21.97265625,28.3203125,23.4375,45.8984375,-17.578125
1508291861965.5662,8.7890625,24.4140625,29.78515625,38.57421875,-32.71484375
1508291861969.4724,8.30078125,24.90234375,26.85546875,47.8515625,-48.828125
1508291861973.3787,18.06640625,30.2734375,23.4375,58.10546875,-31.73828125
1508291861977.285,25.87890625,31.25,35.64453125,65.4296875,-17.578125
1508291861979.348,15.13671875,30.2734375,37.109375,62.5,-25.390625
1508291861983.2542,-0.48828125,26.85546875,24.4140625,55.17578125,-3.90625
1508291861987.1604,9.27734375,22.94921875,28.80859375,55.17578125,-35.15625
1508291861991.0667,18.5546875,22.94921875,40.52734375,52.24609375,-66.89453125
1508291861994.973,18.5546875,24.90234375,41.015625,49.8046875,-2.9296875
1508291861998.8792,15.13671875,27.83203125,33.69140625,39.55078125,-19.04296875
1508291862002.7854,14.6484375,31.73828125,20.01953125,39.0625,-85.9375
1508291862006.6917,20.99609375,35.15625,21.484375,46.875,-42.96875
1508291862010.598,15.625,33.203125,27.83203125,48.828125,6.34765625
1508291862014.5042,0.0,30.2734375,15.625,41.50390625,-7.32421875
1508291862018.4104,2.44140625,28.3203125,19.04296875,40.0390625,-14.6484375
1508291862022.3167,15.13671875,27.83203125,31.73828125,50.78125,-22.94921875
1508291862038.89,20.5078125,28.3203125,30.76171875,48.828125,-41.50390625
1508291862042.7961,5.859375,24.90234375,22.94921875,33.203125,-54.19921875
1508291862046.7024,-5.859375,22.94921875,14.6484375,32.2265625,-34.66796875
1508291862050.6086,5.859375,27.34375,18.5546875,42.48046875,-13.18359375
1508291862054.515,10.25390625,30.2734375,20.5078125,42.48046875,22.94921875
1508291862058.4211,6.34765625,31.25,12.6953125,37.59765625,62.5
1508291862062.3274,4.39453125,29.78515625,15.13671875,21.97265625,-8.7890625
1508291862066.2336,11.71875,26.85546875,35.15625,28.3203125,-34.1796875
1508291862070.14,20.5078125,28.80859375,44.921875,44.43359375,37.109375
1508291862074.0461,19.04296875,32.2265625,34.66796875,37.59765625,14.6484375
1508291862077.9524,8.30078125,32.71484375,27.34375,24.4140625,30.2734375
1508291862081.8586,29.78515625,33.69140625,29.78515625,48.828125,63.96484375
1508291862098.9346,35.64453125,32.71484375,29.296875,67.87109375,8.30078125
1508291862102.8408,-15.13671875,30.76171875,23.4375,24.90234375,-2.9296875
1508291862106.747,-46.875,27.83203125,15.13671875,-11.23046875,-20.99609375
1508291862110.6533,-65.91796875,25.390625,15.625,-21.484375,-10.25390625
1508291862114.5596,-79.1015625,20.5078125,17.578125,-37.109375,27.34375
1508291862118.4658,-101.5625,9.765625,15.625,-70.80078125,35.15625
1508291862122.372,-131.34765625,4.8828125,9.765625,-104.00390625,28.3203125
1508291862126.2783,-156.73828125,2.44140625,12.20703125,-126.953125,41.015625
1508291862130.1846,-156.25,1.953125,20.01953125,-117.67578125,47.36328125
1508291862134.0908,-152.83203125,4.39453125,11.71875,-120.60546875,10.7421875
1508291862137.997,-159.1796875,7.32421875,13.18359375,-128.90625,12.20703125
1508291862141.9033,-155.76171875,4.8828125,25.87890625,-108.3984375,39.0625
1508291862128.9543,-149.90234375,-0.9765625,29.296875,-98.14453125,57.6171875
1508291862132.8606,-136.71875,0.0,36.1328125,-92.7734375,38.0859375
1508291862136.7668,-118.1640625,2.9296875,34.66796875,-80.078125,22.94921875
1508291862140.673,-116.69921875,1.46484375,24.4140625,-77.1484375,-3.90625
1508291862144.5793,-111.328125,0.0,19.53125,-66.89453125,-31.25
1508291862148.4856,-86.9140625,-0.9765625,15.13671875,-48.828125,0.0
1508291862152.3918,-80.56640625,2.44140625,20.01953125,-40.0390625,8.7890625
1508291862156.298,-83.984375,3.90625,22.4609375,-32.2265625,2.9296875
1508291862160.2043,-75.1953125,1.46484375,16.11328125,-25.390625,11.71875
1508291862164.1106,-52.734375,0.48828125,22.4609375,-17.578125,13.18359375
1508291862168.0168,-39.0625,0.48828125,28.3203125,-9.27734375,16.11328125
1508291862171.923,-34.1796875,4.8828125,22.4609375,-5.859375,17.578125
1508291862174.0547,-46.875,5.859375,9.27734375,-19.53125,-20.99609375
1508291862177.961,-45.8984375,5.859375,6.8359375,-16.11328125,-35.15625
1508291862181.8672,-26.3671875,8.7890625,21.484375,-1.46484375,2.9296875
1508291862185.7734,-23.4375,12.6953125,19.04296875,-1.953125,12.6953125
1508291862189.6797,-30.76171875,11.71875,19.53125,1.953125,24.90234375
1508291862193.586,-28.80859375,6.34765625,17.578125,14.16015625,21.484375
1508291862197.4922,-25.390625,9.27734375,16.6015625,25.87890625,27.83203125
1508291862201.3984,-21.97265625,14.6484375,22.4609375,25.390625,28.3203125
1508291862205.3047,-29.78515625,15.13671875,9.765625,6.8359375,-6.34765625
1508291862209.211,-35.64453125,18.06640625,15.13671875,1.46484375,19.53125
1508291862213.1172,-23.4375,20.99609375,33.203125,18.5546875,60.05859375
1508291862217.0234,-17.08984375,18.06640625,24.90234375,20.5078125,40.52734375
1508291862219.1252,-25.390625,14.16015625,19.53125,10.25390625,34.1796875
1508291862223.0315,-30.2734375,13.18359375,19.53125,12.20703125,0.9765625
1508291862226.9377,-14.6484375,16.11328125,25.87890625,24.90234375,-0.48828125
1508291862230.844,-0.9765625,19.53125,29.78515625,35.64453125,20.01953125
1508291862234.7502,-5.37109375,19.04296875,19.53125,31.25,5.37109375
1508291862238.6565,-17.578125,19.53125,13.671875,18.5546875,14.16015625
1508291862242.5627,-15.625,21.97265625,7.32421875,21.484375,4.39453125
1508291862246.469,-5.37109375,22.94921875,-1.953125,30.76171875,9.765625
1508291862250.3752,-0.9765625,20.01953125,1.953125,31.25,0.0
1508291862254.2815,-2.9296875,17.08984375,17.578125,26.3671875,-9.27734375
1508291862258.1877,-2.9296875,20.5078125,24.90234375,29.78515625,41.9921875
1508291862262.094,5.859375,22.94921875,22.94921875,33.203125,41.015625
1508291862264.137,10.25390625,21.484375,21.484375,28.3203125,20.5078125
1508291862268.0432,5.859375,25.390625,20.5078125,18.06640625,6.34765625
1508291862271.9495,1.46484375,28.3203125,15.13671875,13.671875,-9.765625
1508291862275.8557,6.34765625,27.34375,18.5546875,22.4609375,18.06640625
1508291862279.762,9.27734375,27.83203125,21.484375,24.90234375,37.59765625
1508291862283.6682,-2.9296875,23.92578125,6.8359375,16.11328125,6.8359375
1508291862287.5745,-13.671875,20.5078125,13.18359375,10.7421875,19.04296875
1508291862291.4807,-10.25390625,19.53125,17.578125,12.6953125,21.97265625
1508291862295.387,-1.953125,20.01953125,13.671875,14.6484375,7.8125
1508291862299.2932,-2.9296875,22.4609375,22.94921875,11.71875,1.46484375
1508291862303.1995,-4.8828125,21.484375,14.6484375,8.30078125,-6.8359375
1508291862307.1057,7.32421875,21.484375,11.23046875,20.99609375,36.1328125
1508291862309.1692,9.27734375,22.94921875,15.625,23.92578125,41.50390625
1508291862313.0754,-1.46484375,24.4140625,13.671875,14.16015625,3.90625
1508291862316.9817,-10.25390625,21.484375,10.7421875,4.8828125,25.390625
1508291862320.888,-7.32421875,20.5078125,14.6484375,6.34765625,29.296875
1508291862324.7942,-5.859375,21.484375,25.390625,14.6484375,-16.11328125
1508291862328.7004,-7.32421875,17.578125,19.04296875,12.6953125,-22.4609375
1508291862332.6067,-11.23046875,17.08984375,9.765625,9.27734375,-22.94921875
1508291862336.513,-17.578125,18.5546875,5.859375,7.8125,-26.3671875
1508291862340.4192,-6.8359375,21.484375,23.92578125,20.01953125,23.4375
1508291862344.3254,-2.9296875,21.484375,29.296875,26.3671875,41.50390625
1508291862348.2317,-8.7890625,20.01953125,26.85546875,13.18359375,32.2265625
1508291862352.138,-11.23046875,19.53125,20.99609375,2.44140625,28.80859375
1508291862369.211,-1.953125,19.04296875,24.4140625,15.625,-0.48828125
1508291862373.1172,5.37109375,19.04296875,36.62109375,30.2734375,11.71875
1508291862377.0234,1.46484375,20.99609375,26.85546875,24.90234375,4.8828125
1508291862380.9297,-5.859375,23.92578125,28.3203125,14.6484375,4.39453125
1508291862384.836,0.9765625,23.4375,39.55078125,13.671875,34.1796875
1508291862388.7422,13.18359375,20.01953125,39.55078125,22.94921875,45.8984375
1508291862392.6484,7.8125,22.4609375,27.34375,17.08984375,38.0859375
1508291862396.5547,-1.46484375,26.3671875,26.3671875,1.46484375,4.8828125
1508291862400.461,3.90625,27.83203125,35.64453125,7.32421875,35.15625
1508291862404.3672,8.30078125,26.3671875,28.3203125,12.6953125,26.3671875
1508291862408.2734,-3.41796875,20.01953125,29.78515625,13.18359375,3.41796875
1508291862412.1797,-16.11328125,20.99609375,31.73828125,12.20703125,-18.5546875
1508291862414.2427,-14.6484375,23.92578125,26.3671875,13.18359375,9.27734375
1508291862418.149,4.8828125,20.01953125,22.4609375,24.90234375,27.83203125
1508291862422.0552,16.6015625,24.90234375,19.53125,27.34375,19.53125
1508291862425.9614,3.90625,31.25,18.5546875,11.71875,45.8984375
1508291862429.8677,-11.71875,34.1796875,12.20703125,-2.9296875,27.34375
1508291862433.774,-4.39453125,31.73828125,12.20703125,9.27734375,14.6484375
1508291862437.6802,14.16015625,28.3203125,26.85546875,26.3671875,17.08984375
1508291862441.5864,12.20703125,29.78515625,32.2265625,35.64453125,7.32421875
1508291862445.4927,4.8828125,31.73828125,24.90234375,35.15625,-6.8359375
1508291862449.399,7.8125,30.76171875,14.6484375,30.2734375,-31.73828125
1508291862453.3052,16.11328125,31.25,15.625,33.203125,-22.94921875
1508291862457.2114,18.06640625,33.69140625,28.80859375,37.59765625,-13.671875
1508291862474.2856,-1.46484375,32.2265625,20.99609375,32.71484375,-19.04296875
1508291862478.192,-7.32421875,32.71484375,15.13671875,27.34375,-6.34765625
1508291862482.0981,13.671875,35.15625,20.5078125,35.64453125,-4.8828125
1508291862486.0044,16.6015625,33.203125,25.390625,34.1796875,-4.39453125
1508291862489.9106,-2.9296875,30.76171875,16.6015625,23.92578125,-8.30078125
1508291862493.817,-5.859375,32.71484375,9.27734375,23.92578125,-15.625
1508291862497.7231,4.39453125,32.71484375,20.01953125,32.71484375,20.01953125
1508291862501.6294,9.27734375,31.25,25.87890625,34.1796875,1.46484375
1508291862505.5356,8.7890625,34.1796875,21.484375,27.34375,-26.85546875
1508291862509.442,1.46484375,34.66796875,4.8828125,16.6015625,3.90625
1508291862513.3481,10.25390625,35.15625,10.25390625,22.4609375,-3.90625
1508291862517.2544,15.13671875,38.57421875,27.34375,37.109375,9.27734375
1508291862504.3066,10.7421875,37.59765625,16.11328125,30.76171875,1.953125
1508291862508.213,1.46484375,35.15625,9.27734375,15.625,-26.85546875
1508291862512.1191,2.9296875,36.1328125,20.5078125,18.5546875,-21.97265625
1508291862516.0254,18.06640625,35.64453125,31.25,28.80859375,-10.7421875
1508291862519.9316,16.11328125,33.69140625,23.4375,24.4140625,-27.34375
1508291862523.838,5.37109375,30.76171875,14.6484375,19.04296875,13.671875
1508291862527.7441,6.8359375,28.80859375,22.94921875,21.97265625,17.08984375
1508291862531.6504,15.625,29.296875,36.62109375,27.83203125,-2.44140625
1508291862535.5566,20.01953125,30.2734375,33.69140625,26.85546875,42.48046875
1508291862539.463,8.30078125,27.83203125,26.3671875,18.5546875,40.52734375
1508291862543.3691,-3.90625,24.90234375,28.80859375,16.11328125,12.6953125
1508291862547.2754,5.37109375,25.87890625,25.87890625,23.4375,-15.625
1508291862549.3396,13.671875,20.99609375,21.97265625,25.87890625,-10.25390625
1508291862553.2458,12.6953125,16.11328125,27.83203125,20.5078125,18.06640625
1508291862557.152,4.39453125,18.5546875,40.0390625,15.625,14.16015625
1508291862561.0583,7.8125,19.53125,46.38671875,24.4140625,6.34765625
1508291862564.9646,16.6015625,21.484375,44.921875,31.73828125,17.578125
1508291862568.8708,17.578125,24.90234375,35.15625,23.4375,21.97265625
1508291862572.777,6.34765625,26.85546875,33.69140625,20.5078125,8.7890625
1508291862576.6833,3.41796875,27.34375,41.015625,20.5078125,0.0
1508291862580.5896,17.08984375,29.296875,40.0390625,25.390625,-19.04296875
1508291862584.4958,15.625,31.25,47.8515625,24.90234375,-28.80859375
1508291862588.402,0.48828125,30.2734375,55.17578125,13.18359375,0.9765625
1508291862592.3083,-5.37109375,28.3203125,42.96875,10.25390625,11.23046875
1508291862594.371,1.953125,27.83203125,47.36328125,20.5078125,14.6484375
1508291862598.2773,2.44140625,26.3671875,43.45703125,20.5078125,14.16015625
1508291862602.1836,-2.9296875,25.390625,26.85546875,11.23046875,-10.7421875
1508291862606.0898,-9.765625,27.83203125,22.4609375,5.37109375,-14.16015625
1508291862609.996,2.44140625,25.87890625,28.80859375,13.18359375,-1.953125
1508291862613.9023,9.27734375,25.390625,25.390625,16.6015625,-18.5546875
1508291862617.8086,3.41796875,26.3671875,22.94921875,14.6484375,6.8359375
1508291862621.7148,-7.32421875,24.90234375,9.765625,8.30078125,-0.9765625
1508291862625.621,-5.859375,24.4140625,0.0,6.8359375,-41.015625
1508291862629.5273,2.44140625,22.94921875,18.5546875,20.5078125,-29.296875
1508291862633.4336,-1.46484375,24.90234375,20.99609375,27.34375,-3.41796875
1508291862637.3398,-6.34765625,26.3671875,17.578125,18.5546875,-4.39453125
1508291862638.9036,-5.37109375,23.4375,25.390625,18.06640625,11.71875
1508291862642.8098,7.32421875,21.484375,31.73828125,30.76171875,-8.7890625
1508291862646.716,14.6484375,23.4375,33.69140625,27.83203125,7.8125
1508291862650.6223,2.44140625,22.94921875,30.2734375,10.25390625,25.87890625
1508291862654.5286,-8.30078125,22.4609375,27.83203125,6.8359375,-4.39453125
1508291862658.4348,3.41796875,25.87890625,27.34375,19.53125,13.671875
1508291862662.341,9.27734375,25.87890625,27.83203125,25.87890625,38.57421875
1508291862666.2473,5.37109375,23.92578125,13.671875,16.11328125,7.8125
1508291862670.1536,-10.25390625,21.484375,9.27734375,3.41796875,14.6484375
1508291862674.0598,-5.859375,18.06640625,20.5078125,16.11328125,34.66796875
1508291862677.966,5.859375,22.4609375,17.08984375,22.94921875,23.4375
1508291862681.8723,2.9296875,29.296875,15.13671875,15.625,17.08984375
1508291862683.9346,-7.32421875,29.296875,16.6015625,11.23046875,-12.6953125
1508291862687.8408,-6.34765625,25.87890625,17.578125,14.16015625,18.5546875
1508291862691.747,15.13671875,26.3671875,14.6484375,23.4375,2.9296875
1508291862695.6533,8.7890625,27.83203125,15.13671875,21.97265625,-34.1796875
1508291862699.5596,-8.30078125,23.4375,12.6953125,9.27734375,-41.015625
1508291862703.4658,-7.8125,20.01953125,16.6015625,13.671875,-23.92578125
1508291862707.372,4.8828125,20.99609375,19.53125,26.3671875,-3.90625
1508291862711.2783,9.27734375,24.4140625,17.578125,17.08984375,-9.765625
1508291862715.1846,1.953125,25.390625,29.296875,14.6484375,7.32421875
1508291862719.0908,-8.30078125,23.92578125,24.4140625,16.6015625,0.48828125
1508291862722.997,-5.859375,22.94921875,19.04296875,18.5546875,-1.46484375
1508291862726.9033,0.48828125,23.4375,20.99609375,20.5078125,-16.6015625
1508291862743.9788,0.0,21.484375,22.94921875,18.06640625,-3.41796875
1508291862747.885,-6.34765625,19.04296875,16.11328125,17.578125,20.5078125
1508291862751.7913,-3.90625,21.484375,10.7421875,21.97265625,-14.16015625
1508291862755.6975,2.44140625,22.4609375,20.99609375,28.3203125,1.46484375
1508291862759.6038,-0.48828125,20.99609375,25.390625,26.3671875,40.52734375
1508291862763.51,-9.765625,21.97265625,14.6484375,14.6484375,47.8515625
1508291862767.4163,-4.8828125,24.4140625,3.90625,16.11328125,26.3671875
1508291862771.3225,7.32421875,24.4140625,13.671875,25.87890625,12.6953125
1508291862775.2288,3.41796875,21.97265625,34.1796875,32.2265625,36.62109375
1508291862779.135,-3.41796875,22.4609375,30.76171875,30.2734375,0.0
1508291862783.0413,-9.27734375,25.87890625,27.34375,30.76171875,-43.9453125
1508291862786.9475,-0.48828125,25.87890625,36.62109375,39.55078125,-0.9765625
1508291862773.9988,8.7890625,24.90234375,39.55078125,43.45703125,42.48046875
1508291862777.905,-2.44140625,29.296875,32.2265625,43.45703125,37.109375
1508291862781.8113,-9.27734375,26.3671875,28.3203125,39.55078125,7.8125
1508291862785.7175,0.9765625,19.04296875,33.203125,42.48046875,11.23046875
1508291862789.6238,7.8125,21.97265625,33.69140625,48.33984375,56.640625
1508291862793.53,3.90625,28.80859375,28.80859375,47.8515625,20.5078125
1508291862797.4363,-9.765625,33.69140625,31.73828125,32.71484375,2.9296875
1508291862801.3425,-3.41796875,28.80859375,42.96875,23.4375,13.671875
1508291862805.2488,5.859375,28.80859375,45.8984375,35.64453125,-16.11328125
1508291862809.155,3.90625,31.25,26.85546875,40.0390625,-54.19921875
1508291862813.0613,-6.34765625,27.83203125,14.6484375,31.73828125,-51.7578125
1508291862816.9675,-5.859375,26.85546875,32.71484375,41.9921875,-14.16015625
1508291862834.0417,5.37109375,21.484375,39.55078125,55.17578125,-22.4609375
1508291862837.948,14.6484375,19.53125,38.57421875,48.33984375,-4.39453125
1508291862841.8542,4.8828125,18.06640625,37.109375,34.66796875,15.13671875
1508291862845.7605,-8.30078125,19.53125,33.69140625,32.2265625,19.04296875
1508291862849.6667,11.23046875,22.94921875,23.92578125,39.55078125,42.48046875
1508291862853.573,12.20703125,18.5546875,11.23046875,34.1796875,18.06640625
1508291862857.4792,-4.39453125,20.01953125,14.6484375,33.203125,15.13671875
1508291862861.3855,-8.30078125,20.5078125,24.4140625,38.57421875,0.9765625
1508291862865.2917,11.71875,20.5078125,29.78515625,58.10546875,17.578125
1508291862869.198,19.53125,24.90234375,25.87890625,55.6640625,31.25
1508291862873.1042,-1.953125,19.53125,33.203125,29.296875,13.18359375
1508291862877.0105,-15.13671875,14.16015625,43.45703125,20.5078125,35.15625
1508291862879.093,-9.27734375,19.04296875,32.71484375,22.4609375,19.53125
1508291862882.9993,-1.46484375,22.4609375,27.83203125,25.390625,8.30078125
1508291862886.9055,-3.41796875,24.4140625,26.3671875,31.73828125,34.1796875
1508291862890.8118,-15.13671875,21.484375,17.08984375,23.92578125,25.87890625
1508291862894.718,-11.23046875,20.01953125,12.6953125,16.11328125,0.9765625
1508291862898.6243,8.30078125,20.5078125,20.99609375,29.296875,15.625
1508291862902.5305,12.20703125,18.06640625,27.34375,33.203125,31.25
1508291862906.4368,3.90625,18.5546875,25.390625,28.80859375,19.04296875
1508291862910.343,-6.34765625,15.625,13.18359375,16.6015625,-19.53125
1508291862914.2493,3.90625,17.578125,9.765625,16.11328125,-28.80859375
1508291862918.1555,19.04296875,23.92578125,31.25,29.296875,17.08984375
1508291862922.0618,6.8359375,22.4609375,37.59765625,26.85546875,20.5078125
1508291862924.1257,-11.71875,21.97265625,31.73828125,15.13671875,39.0625
1508291862928.032,-1.46484375,22.4609375,32.2265625,20.5078125,38.0859375
1508291862931.9382,6.8359375,20.99609375,37.109375,25.390625,1.953125
1508291862935.8445,7.8125,21.97265625,32.71484375,23.92578125,-4.8828125
1508291862939.7507,-5.37109375,23.4375,25.87890625,15.13671875,27.83203125
1508291862943.657,-4.8828125,25.87890625,22.94921875,17.08984375,34.66796875
1508291862947.5632,14.16015625,26.3671875,16.6015625,27.83203125,16.11328125
1508291862951.4695,11.23046875,22.94921875,19.04296875,25.390625,48.33984375
1508291862955.3757,-6.8359375,21.97265625,4.8828125,9.765625,-2.44140625
1508291862959.282,-6.8359375,22.4609375,5.859375,10.7421875,-18.06640625
1508291862963.1882,1.953125,24.4140625,31.73828125,27.34375,-5.859375
1508291862967.0945,1.953125,25.390625,24.90234375,27.83203125,-41.015625
1508291862969.137,1.953125,23.4375,16.11328125,21.97265625,-2.44140625
1508291862973.0432,-5.859375,23.92578125,19.04296875,17.08984375,14.6484375
1508291862976.9495,2.9296875,23.4375,21.97265625,23.92578125,22.4609375
1508291862980.8557,8.30078125,24.90234375,13.18359375,25.390625,49.8046875
1508291862984.762,0.0,28.80859375,3.90625,11.71875,32.2265625
1508291862988.6682,-10.25390625,25.390625,4.39453125,2.9296875,24.4140625
1508291862992.5745,-0.9765625,21.484375,13.671875,13.18359375,29.78515625
1508291862996.4807,5.859375,23.92578125,9.765625,13.671875,17.578125
1508291863000.387,8.7890625,23.4375,0.48828125,6.8359375,-20.01953125
1508291863004.2932,8.30078125,22.4609375,13.18359375,10.25390625,-6.34765625
1508291863008.1995,0.48828125,23.92578125,17.578125,17.08984375,45.8984375
1508291863012.1057,7.8125,27.34375,17.578125,24.4140625,58.10546875
1508291863014.171,11.71875,33.203125,14.6484375,26.3671875,60.546875
1508291863018.0771,1.46484375,31.73828125,11.71875,17.08984375,62.5
1508291863021.9834,-2.44140625,30.76171875,9.765625,16.11328125,61.03515625
1508291863025.8896,4.39453125,29.296875,11.23046875,27.83203125,49.31640625
1508291863029.796,6.8359375,24.4140625,14.16015625,30.2734375,16.11328125
1508291863033.7021,2.44140625,27.34375,12.20703125,21.97265625,20.01953125
1508291863037.6084,-8.30078125,27.34375,5.37109375,17.578125,31.73828125
1508291863041.5146,-0.48828125,25.87890625,7.8125,20.01953125,-25.87890625
1508291863045.421,11.23046875,31.25,21.484375,20.5078125,-9.27734375
1508291863049.3271,8.7890625,29.78515625,20.99609375,22.4609375,14.6484375
1508291863053.2334,2.44140625,26.85546875,18.06640625,22.4609375,-1.953125
1508291863057.1396,5.859375,23.92578125,21.484375,23.92578125,26.85546875
1508291863059.2026,13.18359375,24.4140625,26.85546875,25.390625,9.765625
1508291863063.109,15.13671875,28.80859375,30.2734375,24.90234375,4.39453125
1508291863067.0151,8.30078125,29.296875,19.04296875,21.97265625,-12.6953125
1508291863070.9214,15.13671875,32.2265625,12.20703125,26.85546875,-18.5546875
1508291863074.8276,24.4140625,34.1796875,13.671875,32.71484375,-5.37109375
1508291863078.734,10.7421875,29.78515625,14.16015625,34.66796875,22.4609375
1508291863082.6401,-5.859375,24.4140625,10.7421875,30.2734375,30.76171875
1508291863086.5464,-19.53125,17.08984375,10.7421875,17.08984375,-24.4140625
1508291863090.4526,-0.48828125,17.578125,24.4140625,34.1796875,-1.46484375
1508291863094.359,6.8359375,20.99609375,20.99609375,38.57421875,-6.34765625
1508291863098.2651,-0.48828125,23.92578125,14.16015625,22.94921875,-19.53125
1508291863102.1714,-6.34765625,25.87890625,16.11328125,21.97265625,-11.71875
1508291863104.2344,-1.953125,27.34375,21.484375,27.83203125,-1.46484375
1508291863108.1406,5.37109375,26.85546875,27.83203125,31.73828125,5.37109375
1508291863112.0469,1.46484375,25.87890625,32.2265625,30.2734375,-3.90625
1508291863115.9531,-4.8828125,27.83203125,35.64453125,22.94921875,3.90625
1508291863119.8594,-4.39453125,27.34375,38.57421875,26.85546875,-3.90625
1508291863123.7656,12.6953125,24.4140625,35.15625,40.52734375,30.2734375
1508291863127.6719,15.625,24.4140625,20.01953125,33.69140625,27.34375
1508291863131.5781,-0.9765625,28.80859375,17.578125,25.87890625,-6.34765625
1508291863135.4844,0.48828125,35.64453125,30.76171875,34.1796875,0.48828125
1508291863139.3906,12.20703125,38.57421875,31.25,42.96875,25.390625
1508291863143.2969,4.39453125,33.203125,29.78515625,34.1796875,33.69140625
1508291863147.2031,-3.90625,29.296875,36.62109375,21.97265625,52.24609375
1508291863149.7852,-3.90625,28.80859375,36.62109375,23.92578125,69.82421875
1508291863153.6914,3.90625,26.85546875,33.203125,28.3203125,16.11328125
1508291863157.5977,10.25390625,32.71484375,34.1796875,31.73828125,12.20703125
1508291863161.504,-0.48828125,36.62109375,36.62109375,28.3203125,-8.7890625
1508291863165.4102,-3.41796875,32.71484375,43.9453125,20.5078125,-41.9921875
1508291863169.3164,4.8828125,35.64453125,40.52734375,30.2734375,-3.41796875
1508291863173.2227,7.32421875,37.109375,30.76171875,27.34375,-5.859375
1508291863177.129,2.44140625,31.73828125,39.55078125,23.92578125,0.9765625
1508291863181.0352,-6.8359375,26.3671875,33.69140625,27.34375,12.20703125
1508291863184.9414,-11.71875,21.97265625,27.34375,20.99609375,0.9765625
1508291863188.8477,-6.34765625,23.4375,32.2265625,25.390625,4.39453125
1508291863192.754,2.44140625,19.04296875,30.76171875,32.71484375,26.85546875
1508291863209.3252,0.9765625,17.578125,27.34375,25.87890625,29.296875
1508291863213.2314,-1.953125,27.34375,15.625,15.13671875,23.92578125
1508291863217.1377,1.953125,27.83203125,16.11328125,24.4140625,17.578125
1508291863221.044,7.8125,21.97265625,18.5546875,31.25,-9.27734375
1508291863224.9502,8.7890625,20.01953125,12.6953125,24.4140625,0.9765625
1508291863228.8564,0.0,21.484375,8.7890625,19.53125,-11.23046875
1508291863232.7627,7.32421875,22.4609375,12.6953125,27.83203125,-16.11328125
1508291863236.669,15.13671875,21.97265625,16.11328125,34.1796875,-7.8125
1508291863240.5752,13.18359375,21.484375,15.13671875,34.66796875,2.9296875
1508291863244.4814,10.7421875,24.4140625,1.953125,30.76171875,-2.9296875
1508291863248.3877,9.765625,26.85546875,4.8828125,31.73828125,-13.18359375
1508291863252.294,0.9765625,21.97265625,11.23046875,34.66796875,14.6484375
1508291863254.3572,-2.9296875,23.92578125,-2.44140625,29.296875,32.71484375
1508291863258.2634,-6.8359375,29.78515625,-5.37109375,23.92578125,-3.41796875
1508291863262.1697,-15.625,22.4609375,2.9296875,24.90234375,-22.94921875
1508291863266.076,-2.9296875,18.06640625,11.71875,36.1328125,-3.90625
1508291863269.9822,6.8359375,20.01953125,12.6953125,41.015625,12.6953125
1508291863273.8884,-1.46484375,20.99609375,5.859375,28.3203125,44.921875
1508291863277.7947,-1.953125,21.484375,8.30078125,22.4609375,14.6484375
1508291863281.701,4.8828125,19.04296875,25.390625,37.109375,9.765625
1508291863285.6072,3.90625,19.53125,28.80859375,42.96875,20.99609375
1508291863289.5134,0.0,18.5546875,22.94921875,24.90234375,12.20703125
1508291863293.4197,1.953125,16.6015625,31.25,20.99609375,26.3671875
1508291863297.326,12.20703125,13.671875,31.73828125,41.50390625,8.30078125
1508291863299.4097,18.06640625,14.16015625,23.92578125,39.55078125,-12.20703125
1508291863303.316,8.30078125,20.99609375,17.578125,29.78515625,-28.3203125
1508291863307.2222,3.41796875,22.94921875,16.11328125,35.64453125,13.18359375
1508291863311.1284,5.37109375,21.97265625,17.08984375,38.57421875,30.76171875
1508291863315.0347,7.32421875,21.484375,19.53125,37.109375,5.859375
1508291863318.941,8.30078125,21.484375,19.04296875,38.57421875,1.953125
1508291863322.8472,2.9296875,21.484375,11.71875,31.73828125,-8.7890625
1508291863326.7534,6.34765625,20.01953125,19.53125,34.1796875,-13.671875
1508291863330.6597,22.4609375,19.53125,21.97265625,47.36328125,-30.76171875
1508291863334.566,22.94921875,23.4375,28.80859375,48.33984375,-20.01953125
1508291863338.4722,3.90625,21.97265625,46.38671875,40.52734375,14.6484375
1508291863342.3784,-9.27734375,22.94921875,39.55078125,33.203125,-3.90625
1508291863343.9202,3.41796875,22.4609375,34.66796875,39.0625,5.37109375
1508291863347.8264,15.625,21.484375,31.73828125,38.57421875,3.41796875
1508291863351.7327,10.25390625,25.87890625,26.3671875,35.15625,23.4375
1508291863355.639,-0.48828125,24.4140625,16.11328125,31.25,39.55078125
1508291863359.5452,3.41796875,26.85546875,17.578125,32.2265625,33.203125
1508291863363.4514,8.30078125,31.73828125,23.4375,32.2265625,27.83203125
1508291863367.3577,6.34765625,30.76171875,21.97265625,23.4375,-21.484375
1508291863371.264,-2.44140625,30.76171875,19.53125,19.04296875,-25.390625
1508291863375.1702,-7.32421875,26.3671875,15.625,17.08984375,-4.8828125
1508291863379.0764,4.39453125,21.97265625,32.71484375,28.3203125,-6.8359375
1508291863382.9827,2.44140625,20.5078125,34.66796875,33.203125,5.859375
1508291863386.889,-6.8359375,23.4375,20.5078125,20.01953125,6.34765625
1508291863389.0066,3.41796875,25.87890625,21.484375,16.6015625,-1.46484375
1508291863392.9128,13.671875,27.34375,33.69140625,31.73828125,14.6484375
1508291863396.819,7.8125,30.2734375,24.4140625,32.2265625,11.23046875
1508291863400.7253,-0.48828125,29.296875,23.4375,19.53125,-6.34765625
1508291863404.6316,-4.8828125,28.80859375,22.4609375,16.11328125,-2.9296875
1508291863408.5378,2.9296875,31.73828125,19.04296875,25.390625,-3.90625
1508291863412.444,8.7890625,29.78515625,26.85546875,31.25,-20.01953125
1508291863416.3503,5.859375,27.83203125,19.04296875,16.11328125,-56.15234375
1508291863420.2566,-2.44140625,27.34375,27.83203125,9.27734375,-37.109375
1508291863424.1628,8.30078125,25.87890625,45.41015625,25.87890625,-8.7890625
1508291863428.069,20.99609375,25.390625,36.62109375,28.80859375,1.46484375
1508291863431.9753,10.25390625,26.85546875,23.4375,15.13671875,0.48828125
1508291863434.5403,-4.8828125,29.78515625,18.06640625,3.90625,-30.2734375
1508291863438.4465,-3.90625,27.83203125,22.94921875,8.7890625,-42.96875
1508291863442.3528,1.953125,24.4140625,23.92578125,13.18359375,-41.015625
1508291863446.259,2.44140625,25.390625,27.83203125,9.27734375,-22.4609375
1508291863450.1653,0.9765625,23.92578125,26.85546875,2.9296875,13.18359375
1508291863454.0715,-2.44140625,20.01953125,19.53125,5.859375,6.34765625
1508291863457.9778,5.859375,23.4375,23.4375,17.578125,-7.32421875
1508291863461.884,7.32421875,26.85546875,24.4140625,11.23046875,-6.34765625
1508291863465.7903,-3.90625,27.83203125,27.83203125,1.46484375,-13.671875
1508291863469.6965,-8.7890625,29.78515625,26.85546875,1.46484375,-3.41796875
1508291863473.6028,1.46484375,28.3203125,20.01953125,4.8828125,-7.8125
1508291863477.509,1.46484375,29.78515625,23.4375,3.90625,14.16015625
1508291863479.0703,-4.8828125,28.3203125,33.203125,2.9296875,20.01953125
1508291863482.9766,-10.7421875,23.4375,23.4375,-5.859375,-13.671875
1508291863486.8828,-13.671875,21.97265625,9.765625,-8.7890625,-25.390625
1508291863490.789,-4.8828125,24.4140625,15.625,1.46484375,16.6015625
1508291863494.6953,-7.32421875,22.4609375,20.01953125,-4.8828125,42.48046875
1508291863498.6016,-18.5546875,20.01953125,9.765625,-19.53125,40.0390625
1508291863502.5078,-16.11328125,25.87890625,3.41796875,-14.6484375,17.578125
1508291863506.414,-2.9296875,28.80859375,18.5546875,-3.41796875,-20.5078125
1508291863510.3203,4.39453125,27.34375,39.0625,9.27734375,-8.30078125
1508291863514.2266,-4.39453125,25.87890625,34.1796875,-0.48828125,-3.41796875
1508291863518.1328,-15.625,28.80859375,27.83203125,-13.18359375,-5.37109375
1508291863522.039,-4.39453125,35.15625,37.109375,7.8125,50.78125
1508291863524.1062,4.8828125,36.62109375,33.203125,15.13671875,31.25
1508291863528.0125,-2.44140625,30.2734375,18.5546875,5.37109375,-15.625
1508291863531.9187,-9.27734375,29.78515625,20.5078125,4.8828125,18.5546875
1508291863535.825,0.9765625,32.2265625,30.76171875,17.578125,14.16015625
1508291863539.7312,7.8125,32.2265625,33.203125,25.390625,8.30078125
1508291863543.6375,2.44140625,29.78515625,24.90234375,19.04296875,15.13671875
1508291863547.5437,-7.32421875,31.25,19.04296875,6.8359375,-32.2265625
1508291863551.45,-2.9296875,28.80859375,38.0859375,14.6484375,-31.73828125
1508291863555.3562,8.7890625,20.5078125,42.96875,33.69140625,-2.44140625
1508291863559.2625,6.34765625,19.04296875,30.76171875,30.76171875,-14.16015625
1508291863563.1687,-9.27734375,20.5078125,29.296875,18.06640625,-27.34375
1508291863567.075,-9.27734375,19.04296875,38.0859375,30.2734375,-5.37109375
1508291863584.1443,4.39453125,18.5546875,41.50390625,38.57421875,-0.48828125
1508291863588.0505,2.9296875,19.04296875,39.0625,23.92578125,8.30078125
1508291863591.9568,-5.859375,18.06640625,31.73828125,20.99609375,9.765625
1508291863595.863,-12.20703125,19.04296875,32.71484375,19.04296875,-16.11328125
1508291863599.7693,-6.8359375,20.99609375,32.2265625,27.34375,-36.62109375
1508291863603.6755,1.46484375,24.90234375,27.34375,30.76171875,-23.92578125
1508291863607.5818,-0.48828125,25.87890625,34.66796875,21.484375,19.04296875
1508291863611.488,-4.8828125,25.390625,38.57421875,23.4375,48.33984375
1508291863615.3943,3.90625,28.3203125,30.2734375,36.1328125,19.04296875
1508291863619.3005,11.71875,29.78515625,17.08984375,39.55078125,-6.8359375
1508291863623.2068,8.7890625,28.3203125,25.87890625,27.83203125,22.4609375
1508291863627.113,-1.46484375,28.80859375,36.1328125,25.87890625,15.625
1508291863629.1946,0.9765625,30.76171875,31.73828125,27.34375,-0.9765625
1508291863633.1008,15.625,31.73828125,28.3203125,26.85546875,-20.5078125
1508291863637.007,11.23046875,26.3671875,26.3671875,29.78515625,-36.1328125
1508291863640.9133,10.25390625,20.99609375,27.83203125,36.1328125,-35.15625
1508291863644.8196,18.5546875,25.87890625,22.4609375,36.62109375,-27.83203125
1508291863648.7258,17.578125,31.73828125,13.671875,23.92578125,8.30078125
1508291863652.632,22.94921875,35.15625,10.7421875,25.390625,15.625
1508291863656.5383,16.11328125,38.57421875,11.23046875,29.296875,35.15625
1508291863660.4446,6.34765625,36.62109375,1.953125,28.3203125,5.859375
1508291863664.3508,23.92578125,35.15625,1.46484375,38.57421875,-10.7421875
1508291863668.257,28.80859375,32.71484375,16.11328125,44.921875,35.64453125
1508291863672.1633,21.484375,30.2734375,16.11328125,42.96875,4.39453125
1508291863674.2075,8.7890625,30.2734375,16.6015625,36.1328125,-5.37109375
1508291863678.1138,14.6484375,27.83203125,19.04296875,40.52734375,8.30078125
1508291863682.02,31.73828125,25.87890625,22.94921875,49.8046875,30.76171875
1508291863685.9263,28.3203125,30.76171875,19.53125,46.38671875,54.19921875
1508291863689.8325,15.625,33.69140625,13.18359375,34.1796875,33.69140625
1508291863693.7388,15.13671875,32.2265625,16.11328125,34.66796875,26.85546875
1508291863697.645,24.90234375,33.203125,24.90234375,46.38671875,19.04296875
1508291863701.5513,27.83203125,28.3203125,34.66796875,46.875,41.9921875
1508291863705.4575,15.625,24.4140625,20.01953125,33.69140625,43.9453125
1508291863709.3638,12.20703125,24.90234375,19.53125,28.80859375,-4.8828125
1508291863713.27,24.4140625,25.390625,41.015625,44.921875,12.6953125
1508291863717.1763,26.85546875,28.3203125,38.57421875,47.8515625,32.2265625
1508291863719.2595,18.06640625,31.25,26.3671875,37.109375,30.76171875
1508291863723.1658,6.8359375,31.73828125,18.5546875,24.4140625,15.625
1508291863727.072,16.11328125,32.2265625,22.94921875,33.203125,40.0390625
1508291863730.9783,23.4375,30.2734375,20.01953125,42.48046875,24.4140625
1508291863734.8845,9.765625,25.87890625,14.16015625,33.69140625,-22.4609375
1508291863738.7908,-2.9296875,28.80859375,14.6484375,26.3671875,-16.11328125
1508291863742.697,3.90625,29.296875,20.01953125,26.3671875,-15.625
1508291863746.6033,15.625,27.83203125,22.94921875,30.2734375,2.44140625
1508291863750.5095,17.578125,30.2734375,20.01953125,23.4375,-9.27734375
1508291863754.4158,13.18359375,30.2734375,23.92578125,17.08984375,-9.27734375
1508291863758.322,8.30078125,30.2734375,23.4375,24.90234375,25.87890625
1508291863762.2283,6.8359375,24.90234375,22.4609375,27.83203125,31.25
1508291863764.2703,-0.9765625,18.5546875,29.78515625,27.34375,27.83203125
1508291863768.1765,-9.765625,20.5078125,35.15625,22.94921875,16.6015625
1508291863772.0828,-6.8359375,23.4375,33.203125,23.92578125,-5.859375
1508291863775.989,3.41796875,26.3671875,36.1328125,31.73828125,-13.671875
1508291863779.8953,5.859375,29.78515625,37.59765625,27.34375,12.6953125
1508291863783.8015,0.48828125,29.78515625,26.3671875,15.625,2.9296875
1508291863787.7078,-3.41796875,31.73828125,20.99609375,9.765625,-15.13671875
1508291863791.614,0.9765625,32.2265625,18.06640625,5.37109375,-9.765625
1508291863795.5203,4.8828125,27.83203125,26.85546875,4.8828125,-10.25390625
1508291863799.4265,-4.39453125,24.4140625,38.57421875,11.71875,5.859375
1508291863803.3328,-25.390625,26.3671875,28.80859375,3.41796875,-0.9765625
1508291863807.239,-22.4609375,29.296875,21.97265625,10.7421875,7.32421875
1508291863809.3027,0.0,33.203125,20.5078125,27.83203125,41.015625
1508291863813.209,2.44140625,34.66796875,20.99609375,32.71484375,41.015625
1508291863817.1152,-10.25390625,30.2734375,14.6484375,22.4609375,-9.765625
1508291863821.0215,-2.44140625,30.76171875,13.671875,13.671875,-31.73828125
1508291863824.9277,6.34765625,30.2734375,21.97265625,17.08984375,0.9765625
1508291863828.834,0.0,27.34375,20.01953125,10.7421875,-7.32421875
1508291863832.7402,-16.11328125,24.90234375,15.13671875,-4.8828125,-21.97265625
1508291863836.6465,-28.3203125,21.97265625,10.7421875,-11.23046875,-63.96484375
1508291863840.5527,-14.16015625,26.3671875,31.73828125,4.8828125,-56.640625
1508291863844.459,0.9765625,34.66796875,42.48046875,20.99609375,-2.9296875
1508291863848.3652,-1.46484375,38.0859375,31.25,18.5546875,-25.390625
1508291863852.2715,0.0,38.0859375,24.90234375,14.16015625,2.44140625
1508291863854.3342,10.25390625,39.55078125,21.484375,21.97265625,16.6015625
1508291863858.2405,15.13671875,37.109375,28.3203125,26.3671875,18.06640625
1508291863862.1467,13.18359375,29.296875,32.71484375,27.83203125,31.25
1508291863866.053,-3.41796875,26.3671875,24.90234375,22.4609375,-0.9765625
1508291863869.9592,3.41796875,26.85546875,21.484375,20.99609375,-5.37109375
1508291863873.8655,21.97265625,25.87890625,24.90234375,25.87890625,-13.18359375
1508291863877.7717,17.08984375,28.80859375,12.6953125,21.484375,-38.0859375
1508291863881.678,10.25390625,28.80859375,8.7890625,16.6015625,-49.8046875
1508291863885.5842,10.25390625,28.3203125,25.390625,25.87890625,-41.9921875
1508291863889.4905,10.7421875,32.71484375,27.83203125,38.0859375,-46.875
1508291863893.3967,1.953125,32.2265625,28.80859375,38.57421875,-34.66796875
1508291863897.303,-8.30078125,28.80859375,32.2265625,34.1796875,-18.5546875
1508291863899.3867,-8.30078125,28.80859375,35.64453125,32.2265625,-52.734375
1508291863903.293,-2.9296875,30.2734375,35.64453125,36.1328125,-35.15625
1508291863907.1992,1.953125,32.2265625,29.78515625,40.0390625,26.3671875
1508291863911.1055,-0.9765625,30.76171875,21.97265625,30.76171875,19.53125
1508291863915.0117,-9.765625,28.80859375,23.92578125,22.4609375,5.859375
1508291863918.918,-10.25390625,26.85546875,22.4609375,24.90234375,-13.18359375
1508291863922.8242,-4.8828125,26.85546875,24.90234375,22.4609375,16.6015625
1508291863926.7305,-0.48828125,35.15625,33.69140625,20.5078125,19.04296875
1508291863930.6367,-9.27734375,38.0859375,30.76171875,28.3203125,-18.06640625
1508291863934.543,-2.44140625,36.62109375,34.66796875,41.015625,-7.8125
1508291863938.4492,16.6015625,35.64453125,39.55078125,52.24609375,19.53125
1508291863942.3555,20.01953125,32.71484375,34.66796875,50.29296875,31.73828125
1508291863959.1248,13.18359375,30.76171875,29.78515625,38.57421875,6.8359375
1508291863963.031,2.9296875,31.73828125,23.4375,27.83203125,-18.06640625
1508291863966.9373,-0.48828125,31.73828125,29.296875,26.3671875,3.90625
1508291863970.8435,10.7421875,29.78515625,39.55078125,31.25,-7.32421875
1508291863974.7498,9.765625,30.2734375,30.76171875,29.78515625,23.4375
1508291863978.656,-6.34765625,25.87890625,18.06640625,20.99609375,37.59765625
1508291863982.5623,6.34765625,23.4375,16.6015625,31.25,-20.5078125
1508291863986.4685,25.87890625,26.85546875,16.11328125,39.55078125,9.27734375
1508291863990.3748,23.4375,29.78515625,20.01953125,35.15625,-5.37109375
1508291863994.281,4.39453125,30.2734375,6.8359375,21.484375,-39.55078125
1508291863998.1873,-3.41796875,27.83203125,14.16015625,20.5078125,1.953125
1508291864002.0935,5.859375,23.92578125,31.73828125,38.57421875,58.59375
1508291864004.1807,4.8828125,21.97265625,15.625,27.34375,27.83203125
1508291864008.087,-5.37109375,19.04296875,9.27734375,9.765625,-20.99609375
1508291864011.9932,1.46484375,20.5078125,19.53125,16.6015625,27.83203125
1508291864015.8994,8.30078125,21.97265625,18.5546875,33.69140625,30.2734375
1508291864019.8057,11.71875,23.4375,10.25390625,40.0390625,-32.71484375
1508291864023.712,14.16015625,25.87890625,1.46484375,31.73828125,-10.25390625
1508291864027.6182,3.90625,25.390625,8.30078125,26.85546875,33.69140625
1508291864031.5244,7.32421875,24.90234375,23.4375,38.57421875,20.99609375
1508291864035.4307,10.25390625,22.4609375,14.6484375,42.48046875,22.94921875
1508291864039.337,3.41796875,21.484375,1.46484375,28.3203125,-9.27734375
1508291864043.2432,4.39453125,23.92578125,14.16015625,25.390625,-27.34375
1508291864047.1494,15.625,26.3671875,18.5546875,45.8984375,16.11328125
1508291864049.2068,18.06640625,26.3671875,16.11328125,54.6875,20.5078125
1508291864053.113,8.30078125,24.4140625,17.08984375,49.8046875,-9.765625
1508291864057.0193,2.44140625,22.94921875,10.25390625,38.0859375,0.0
1508291864060.9255,13.671875,20.99609375,4.39453125,42.96875,18.06640625
1508291864064.8318,19.04296875,23.92578125,1.953125,46.38671875,-3.90625
1508291864068.738,14.16015625,26.85546875,2.44140625,35.15625,25.390625
1508291864072.6443,15.625,29.296875,-0.9765625,36.62109375,5.37109375
1508291864076.5505,18.06640625,28.3203125,0.0,40.0390625,-13.671875
1508291864080.4568,34.66796875,27.83203125,6.34765625,41.015625,12.20703125
1508291864084.363,45.8984375,31.25,9.765625,42.48046875,26.85546875
1508291864088.2693,22.4609375,25.87890625,13.18359375,37.109375,23.92578125
1508291864092.1755,-3.90625,23.4375,12.20703125,27.34375,11.23046875
1508291864094.2214,11.23046875,22.4609375,6.8359375,24.90234375,18.5546875
1508291864098.1277,21.484375,19.53125,10.25390625,23.92578125,-0.48828125
1508291864102.034,8.7890625,18.06640625,17.578125,26.85546875,-6.34765625
1508291864105.9402,-3.90625,15.625,14.16015625,25.390625,-3.41796875
1508291864109.8464,6.34765625,18.06640625,15.625,29.78515625,19.04296875
1508291864113.7527,16.6015625,22.4609375,25.87890625,39.55078125,41.015625
1508291864117.659,11.23046875,23.92578125,30.76171875,27.83203125,37.109375
1508291864121.5652,-5.37109375,21.97265625,20.5078125,10.25390625,28.3203125
1508291864125.4714,-13.18359375,18.5546875,17.08984375,9.765625,11.71875
1508291864129.3777,0.9765625,17.578125,32.71484375,27.83203125,-2.9296875
1508291864133.284,1.46484375,20.01953125,32.71484375,31.25,-16.11328125
1508291864137.1902,-6.34765625,23.4375,23.4375,16.6015625,4.39453125
1508291864139.273,-1.46484375,27.34375,26.3671875,12.6953125,26.3671875
1508291864143.1792,8.7890625,29.296875,37.59765625,25.390625,36.62109375
1508291864147.0854,3.41796875,24.90234375,35.15625,24.90234375,42.48046875
1508291864150.9917,-6.8359375,22.94921875,33.69140625,11.71875,45.41015625
1508291864154.898,-6.8359375,24.90234375,33.69140625,11.23046875,40.0390625
1508291864158.8042,-0.48828125,20.5078125,33.203125,22.94921875,34.66796875
1508291864162.7104,6.34765625,16.6015625,43.9453125,31.25,34.1796875
1508291864166.6167,0.0,15.13671875,36.62109375,23.4375,-4.39453125
1508291864170.523,-7.8125,17.08984375,30.2734375,14.16015625,-3.41796875
1508291864174.4292,1.953125,18.5546875,44.921875,29.296875,21.484375
1508291864178.3354,11.23046875,17.578125,39.55078125,36.62109375,6.8359375
1508291864182.2417,5.37109375,19.53125,30.2734375,24.90234375,12.6953125
1508291864184.3096,-13.671875,20.5078125,31.73828125,16.6015625,22.4609375
1508291864188.2158,-12.6953125,21.484375,33.69140625,20.01953125,13.18359375
1508291864192.122,5.859375,21.97265625,30.76171875,27.83203125,0.9765625
1508291864196.0283,5.859375,18.06640625,21.484375,27.34375,37.59765625
1508291864199.9346,-1.953125,16.6015625,19.04296875,18.06640625,25.87890625
1508291864203.8408,-2.9296875,19.04296875,19.04296875,13.671875,13.671875
1508291864207.747,6.8359375,21.484375,13.18359375,28.3203125,72.75390625
1508291864211.6533,10.7421875,24.4140625,6.34765625,22.94921875,17.578125
1508291864215.5596,-0.9765625,22.4609375,24.4140625,11.71875,35.15625
1508291864219.4658,-12.20703125,20.99609375,32.2265625,15.625,23.4375
1508291864223.372,-3.41796875,23.92578125,22.94921875,14.16015625,-31.73828125
1508291864227.2783,12.6953125,26.85546875,29.78515625,15.625,-2.44140625
1508291864229.3416,8.7890625,31.25,37.109375,18.5546875,-2.9296875
1508291864233.2478,2.9296875,33.203125,31.73828125,12.20703125,11.71875
1508291864237.154,6.34765625,33.203125,28.3203125,14.6484375,5.859375
1508291864241.0603,10.7421875,30.76171875,30.2734375,19.04296875,-20.99609375
1508291864244.9666,6.8359375,29.78515625,34.1796875,19.53125,26.3671875
1508291864248.8728,-5.859375,31.73828125,26.85546875,14.16015625,40.0390625
1508291864252.779,-5.859375,30.76171875,17.578125,7.32421875,7.8125
1508291864256.6853,9.765625,28.3203125,26.85546875,14.16015625,-5.859375
1508291864260.5916,18.06640625,30.76171875,31.25,23.4375,16.6015625
1508291864264.4978,8.30078125,34.66796875,15.625,21.484375,40.52734375
1508291864268.404,1.953125,29.78515625,5.859375,19.53125,23.92578125
1508291864272.3103,10.25390625,24.4140625,14.16015625,34.1796875,22.4609375
1508291864274.4104,13.671875,29.78515625,20.01953125,35.64453125,1.953125
1508291864278.3167,4.39453125,30.76171875,15.13671875,29.78515625,-2.9296875
1508291864282.223,-1.953125,25.390625,15.625,24.90234375,-7.8125
1508291864286.1292,2.9296875,21.484375,31.25,26.3671875,-26.85546875
1508291864290.0354,8.30078125,18.5546875,32.71484375,32.2265625,5.37109375
1508291864293.9417,2.9296875,17.578125,17.578125,33.69140625,0.0
1508291864297.848,-9.27734375,20.99609375,13.18359375,21.484375,-57.12890625
1508291864301.7542,-3.41796875,25.87890625,30.76171875,21.484375,-3.90625
1508291864305.6604,11.71875,29.296875,35.64453125,37.109375,19.53125
1508291864309.5667,11.71875,30.2734375,27.83203125,32.2265625,-34.1796875
1508291864313.473,-1.953125,23.92578125,25.87890625,24.4140625,-34.1796875
1508291864317.3792,-8.30078125,17.578125,32.71484375,28.3203125,-9.765625
1508291864333.9158,8.7890625,19.04296875,35.64453125,40.52734375,-6.8359375
1508291864337.822,22.4609375,20.01953125,23.4375,39.55078125,-21.97265625
1508291864341.7283,9.27734375,18.06640625,17.08984375,32.2265625,-10.7421875
1508291864345.6345,-3.90625,20.01953125,17.578125,26.85546875,-7.8125
1508291864349.5408,4.39453125,25.390625,13.18359375,29.78515625,-26.85546875
1508291864353.447,5.859375,24.4140625,5.37109375,28.80859375,-9.765625
1508291864357.3533,-0.9765625,23.92578125,-0.9765625,19.53125,14.16015625
1508291864361.2595,-11.71875,26.3671875,2.9296875,12.6953125,20.5078125
1508291864365.1658,-5.37109375,27.83203125,12.6953125,23.92578125,2.9296875
1508291864369.072,3.41796875,30.76171875,2.9296875,35.15625,-18.5546875
1508291864372.9783,0.9765625,33.69140625,9.27734375,34.1796875,-19.04296875
1508291864376.8845,0.0,34.1796875,17.578125,36.62109375,-26.85546875
1508291864378.969,3.90625,35.15625,15.625,42.96875,-52.734375
1508291864382.8752,11.71875,37.109375,19.53125,42.96875,-72.265625
1508291864386.7815,5.859375,33.69140625,20.5078125,34.66796875,-20.01953125
1508291864390.6877,-5.37109375,35.15625,25.390625,20.01953125,-4.39453125
1508291864394.594,-2.44140625,35.64453125,26.85546875,17.578125,-48.828125
1508291864398.5002,11.71875,32.71484375,27.34375,28.3203125,-13.18359375
1508291864402.4065,16.6015625,38.0859375,20.99609375,29.296875,38.0859375
1508291864406.3127,7.32421875,41.50390625,17.578125,27.34375,11.71875
1508291864410.219,6.8359375,39.0625,7.8125,25.87890625,-7.32421875
1508291864414.1252,12.6953125,38.57421875,1.46484375,30.2734375,-14.16015625
1508291864418.0315,12.6953125,32.2265625,22.94921875,36.62109375,18.06640625
1508291864421.9377,6.8359375,26.85546875,28.80859375,26.3671875,46.38671875
1508291864424.488,-8.7890625,25.87890625,18.5546875,12.6953125,20.99609375
1508291864428.3943,-8.30078125,22.94921875,25.390625,21.484375,37.59765625
1508291864432.3005,9.27734375,24.4140625,35.15625,27.34375,54.19921875
1508291864436.2068,16.11328125,28.80859375,34.66796875,19.53125,54.19921875
1508291864440.113,6.8359375,30.2734375,23.4375,6.8359375,37.109375
1508291864444.0193,3.41796875,28.3203125,13.671875,4.8828125,7.32421875
1508291864447.9255,17.578125,27.34375,18.06640625,20.01953125,-12.20703125
1508291864451.8318,22.94921875,25.87890625,33.69140625,34.1796875,-1.953125
1508291864455.738,0.0,23.4375,27.83203125,23.4375,-32.2265625
