timestamp,TP9,AF7,AF8,TP10,Right AUX
1508291749763.3572,11.23046875,17.578125,32.71484375,51.7578125,33.203125
1508291749767.2634,19.04296875,19.53125,30.2734375,54.19921875,59.5703125
1508291749771.1697,4.39453125,21.484375,26.3671875,33.69140625,16.11328125
1508291749775.076,-5.37109375,25.390625,41.9921875,27.34375,37.109375
1508291749778.9822,10.25390625,30.2734375,52.24609375,40.0390625,34.1796875
1508291749782.8884,10.25390625,32.2265625,46.38671875,44.43359375,5.859375
1508291749786.7947,4.39453125,31.73828125,38.0859375,29.296875,29.296875
1508291749790.701,0.48828125,32.2265625,38.0859375,18.06640625,-22.94921875
1508291749794.6072,7.8125,32.71484375,49.31640625,28.3203125,-53.22265625
1508291749798.5134,15.13671875,30.2734375,49.31640625,35.15625,-2.9296875
1508291749802.4197,11.23046875,28.3203125,36.62109375,28.3203125,6.34765625
1508291749806.326,-1.46484375,25.390625,34.1796875,6.34765625,32.2265625
1508291749808.3882,-14.6484375,23.4375,43.45703125,3.90625,21.484375
1508291749812.2944,0.48828125,23.92578125,49.8046875,20.99609375,15.13671875
1508291749816.2007,0.48828125,23.92578125,41.015625,14.16015625,40.52734375
1508291749820.107,-15.13671875,25.87890625,36.62109375,3.41796875,14.6484375
1508291749824.0132,-15.13671875,27.34375,39.55078125,7.32421875,17.08984375
1508291749827.9194,3.90625,23.92578125,33.203125,28.80859375,47.36328125
1508291749831.8257,12.20703125,24.90234375,25.390625,24.4140625,56.640625
1508291749835.732,6.8359375,29.296875,36.1328125,16.11328125,39.55078125
1508291749839.6382,-6.34765625,26.3671875,42.96875,17.578125,1.46484375
1508291749843.5444,-12.20703125,21.97265625,42.48046875,15.13671875,-4.8828125
1508291749847.4507,-5.37109375,16.11328125,44.921875,15.625,10.7421875
1508291749851.357,-5.859375,16.6015625,48.828125,7.8125,18.5546875
1508291749868.4312,-31.73828125,21.484375,40.0390625,-1.46484375,19.04296875
1508291749872.3374,-21.484375,22.94921875,34.66796875,4.39453125,18.06640625
1508291749876.2437,13.18359375,22.4609375,40.0390625,21.484375,-15.625
1508291749880.15,10.7421875,20.99609375,42.96875,26.85546875,-11.23046875
1508291749884.0562,-14.16015625,25.390625,42.96875,5.37109375,23.4375
1508291749887.9624,-17.578125,29.78515625,31.25,-1.953125,16.11328125
1508291749891.8687,5.37109375,30.2734375,21.484375,11.23046875,20.99609375
1508291749895.775,11.71875,31.25,17.578125,12.20703125,-2.9296875
1508291749899.6812,-5.859375,27.34375,11.23046875,3.41796875,-6.34765625
1508291749903.5874,-18.5546875,20.5078125,2.44140625,-14.6484375,11.23046875
1508291749907.4937,-5.37109375,24.4140625,14.16015625,0.48828125,14.16015625
1508291749911.4,2.9296875,29.78515625,25.87890625,20.99609375,17.578125
1508291749912.965,-6.8359375,27.83203125,12.6953125,6.34765625,20.01953125
1508291749916.8713,-18.06640625,27.34375,7.32421875,4.8828125,44.43359375
1508291749920.7776,-5.37109375,29.296875,15.13671875,15.13671875,42.96875
1508291749924.6838,8.7890625,28.3203125,11.71875,14.16015625,25.87890625
1508291749928.59,-3.90625,26.85546875,0.48828125,10.25390625,6.34765625
1508291749932.4963,-15.13671875,26.3671875,-2.9296875,4.39453125,19.53125
1508291749936.4026,0.48828125,25.87890625,12.6953125,3.90625,37.59765625
1508291749940.3088,13.671875,25.390625,39.0625,18.06640625,1.46484375
1508291749944.215,11.71875,23.92578125,42.96875,15.625,-31.73828125
1508291749948.1213,-7.32421875,24.90234375,39.0625,0.9765625,-9.765625
1508291749952.0276,-13.18359375,30.76171875,45.8984375,-2.44140625,0.9765625
1508291749955.9338,13.671875,34.66796875,38.57421875,14.16015625,-51.26953125
1508291749958.4976,19.04296875,37.59765625,31.25,25.390625,-45.8984375
1508291749962.4038,3.41796875,41.9921875,23.92578125,20.01953125,3.90625
1508291749966.31,-8.30078125,39.0625,21.484375,17.578125,44.43359375
1508291749970.2163,3.41796875,34.66796875,23.4375,25.390625,37.59765625
1508291749974.1226,16.6015625,30.76171875,21.97265625,25.390625,26.85546875
1508291749978.0288,10.7421875,27.83203125,20.01953125,10.25390625,57.6171875
1508291749981.935,-3.90625,31.25,22.4609375,-0.9765625,39.0625
1508291749985.8413,3.41796875,32.71484375,30.2734375,15.625,14.16015625
1508291749989.7476,17.08984375,33.203125,22.4609375,27.83203125,1.953125
1508291749993.6538,17.578125,37.59765625,23.92578125,20.01953125,-9.27734375
1508291749997.56,-0.9765625,38.0859375,33.203125,23.92578125,25.87890625
1508291750001.4663,-3.41796875,34.66796875,26.3671875,27.34375,21.97265625
1508291750003.1687,13.18359375,37.109375,36.62109375,28.3203125,-25.87890625
1508291750007.075,17.08984375,40.0390625,47.36328125,36.62109375,-23.4375
1508291750010.9812,-0.48828125,41.015625,44.43359375,38.57421875,25.87890625
1508291750014.8875,-11.23046875,42.96875,31.73828125,28.80859375,-2.44140625
1508291750018.7937,10.7421875,43.9453125,28.3203125,47.36328125,-14.16015625
1508291750022.7,23.4375,41.9921875,26.85546875,60.05859375,3.90625
1508291750026.6062,20.5078125,35.15625,23.92578125,50.78125,0.0
1508291750030.5125,15.13671875,32.2265625,18.5546875,63.96484375,-11.71875
1508291750034.4187,27.34375,38.57421875,12.20703125,74.21875,-1.46484375
1508291750038.325,24.4140625,40.0390625,20.5078125,57.6171875,18.5546875
1508291750042.2312,10.25390625,35.64453125,20.01953125,41.50390625,-14.6484375
1508291750046.1375,1.46484375,41.015625,8.7890625,22.94921875,-49.8046875
1508291750048.219,8.30078125,49.8046875,1.953125,31.73828125,-9.765625
1508291750052.1252,27.83203125,55.17578125,-7.32421875,53.22265625,14.16015625
1508291750056.0315,23.92578125,61.03515625,-17.08984375,40.0390625,9.765625
1508291750059.9377,15.13671875,63.4765625,-17.578125,29.78515625,-6.8359375
1508291750063.844,14.16015625,61.03515625,-20.5078125,27.83203125,-30.2734375
1508291750067.7502,23.92578125,58.59375,-16.11328125,35.64453125,-29.296875
1508291750071.6565,31.73828125,58.59375,-1.953125,42.96875,-15.625
1508291750075.5627,18.5546875,57.12890625,-4.39453125,29.78515625,-23.4375
1508291750079.469,5.37109375,54.6875,-2.9296875,47.8515625,-29.78515625
1508291750083.3752,31.25,50.78125,3.90625,107.421875,-9.27734375
1508291750087.2815,45.41015625,46.875,-9.765625,137.6953125,-0.9765625
1508291750091.1877,25.390625,45.8984375,-21.97265625,139.6484375,-21.484375
1508291750093.2312,14.16015625,48.33984375,-17.08984375,145.5078125,-32.71484375
1508291750097.1375,25.87890625,45.41015625,-7.32421875,167.48046875,-7.8125
1508291750101.0437,30.76171875,41.50390625,-10.7421875,181.15234375,15.625
1508291750104.95,21.97265625,43.45703125,-7.32421875,176.7578125,-4.39453125
1508291750108.8562,16.11328125,45.8984375,-6.8359375,172.8515625,-21.97265625
1508291750112.7625,9.765625,44.43359375,-10.25390625,178.22265625,-31.73828125
1508291750116.6687,15.625,43.45703125,-7.8125,184.5703125,-21.484375
1508291750120.575,18.5546875,40.0390625,-13.671875,173.828125,14.16015625
1508291750124.4812,5.859375,38.57421875,-4.8828125,166.50390625,44.921875
1508291750128.3875,-0.48828125,36.62109375,2.9296875,168.9453125,27.83203125
1508291750132.2937,17.08984375,34.1796875,0.9765625,175.78125,-1.46484375
1508291750136.2,27.34375,37.109375,6.34765625,174.31640625,20.5078125
1508291750138.262,15.625,42.96875,8.30078125,161.62109375,6.8359375
1508291750142.1682,6.8359375,43.45703125,5.37109375,162.59765625,1.953125
1508291750146.0745,21.97265625,42.48046875,10.25390625,174.8046875,-25.390625
1508291750149.9807,31.73828125,41.9921875,17.08984375,176.26953125,-40.52734375
1508291750153.887,20.5078125,38.0859375,18.06640625,170.41015625,18.5546875
1508291750157.7932,-3.41796875,32.71484375,18.5546875,161.1328125,39.55078125
1508291750161.6995,6.8359375,30.2734375,15.625,153.3203125,-19.53125
1508291750165.6057,31.25,30.76171875,23.92578125,150.87890625,-14.16015625
1508291750169.512,25.390625,34.66796875,34.66796875,162.109375,45.8984375
1508291750173.4182,13.18359375,38.0859375,22.4609375,156.73828125,27.34375
1508291750177.3245,16.11328125,36.62109375,19.53125,156.25,24.4140625
1508291750181.2307,35.15625,36.62109375,30.2734375,167.48046875,10.7421875
1508291750183.2935,43.9453125,38.0859375,31.25,167.48046875,5.37109375
1508291750187.1997,23.92578125,37.59765625,29.296875,162.59765625,38.0859375
1508291750191.106,15.625,35.64453125,40.0390625,150.390625,55.6640625
1508291750195.0122,32.71484375,34.1796875,51.26953125,152.83203125,36.1328125
1508291750198.9185,37.109375,37.109375,47.36328125,159.1796875,21.97265625
1508291750202.8247,25.87890625,37.59765625,29.296875,145.01953125,-7.32421875
1508291750206.731,20.99609375,39.55078125,19.04296875,116.2109375,-12.20703125
1508291750210.6372,41.50390625,41.9921875,42.96875,131.34765625,-6.8359375
1508291750214.5435,59.5703125,39.55078125,62.01171875,168.45703125,23.4375
1508291750218.4497,58.10546875,41.50390625,56.640625,164.0625,24.4140625
1508291750222.356,24.4140625,48.33984375,52.24609375,124.51171875,-29.78515625
1508291750226.2622,2.44140625,45.41015625,59.5703125,110.3515625,-38.57421875
1508291750243.336,16.11328125,39.0625,61.5234375,124.51171875,-16.6015625
1508291750247.2422,14.16015625,39.55078125,41.9921875,115.234375,-9.765625
1508291750251.1484,-11.71875,39.0625,36.62109375,88.8671875,6.34765625
1508291750255.0547,-10.7421875,37.109375,43.45703125,90.8203125,28.80859375
1508291750258.961,9.765625,34.66796875,38.57421875,108.3984375,-15.625
1508291750262.8672,5.859375,35.64453125,29.296875,100.5859375,-24.4140625
1508291750266.7734,-6.34765625,37.59765625,32.2265625,76.66015625,-22.94921875
1508291750270.6797,-6.8359375,37.59765625,46.875,55.6640625,-9.765625
1508291750274.586,11.23046875,35.64453125,44.921875,65.91796875,23.4375
1508291750278.4922,22.94921875,33.69140625,41.50390625,72.75390625,7.32421875
1508291750282.3984,14.6484375,37.59765625,44.43359375,65.4296875,27.34375
1508291750286.3047,1.953125,41.015625,50.78125,61.5234375,42.48046875
1508291750287.9229,13.671875,42.48046875,60.05859375,21.484375,26.3671875
1508291750291.829,23.4375,39.55078125,66.89453125,-29.296875,28.3203125
1508291750295.7354,14.6484375,32.2265625,75.68359375,-65.91796875,38.57421875
1508291750299.6416,2.44140625,26.3671875,71.2890625,-112.79296875,66.89453125
1508291750303.5479,6.8359375,32.2265625,62.98828125,-82.03125,43.9453125
1508291750307.454,18.5546875,38.0859375,59.5703125,-20.5078125,0.9765625
1508291750311.3604,17.578125,36.62109375,57.6171875,-3.41796875,-6.34765625
1508291750315.2666,6.8359375,32.71484375,55.17578125,5.37109375,6.8359375
1508291750319.1729,8.30078125,30.76171875,52.734375,20.01953125,15.13671875
1508291750323.079,23.4375,30.2734375,55.6640625,33.69140625,14.6484375
1508291750326.9854,26.85546875,29.296875,62.01171875,39.0625,-1.953125
1508291750330.8916,8.30078125,27.34375,53.22265625,39.55078125,-29.296875
1508291750332.9573,0.9765625,23.92578125,43.45703125,25.87890625,20.99609375
1508291750336.8635,21.97265625,30.2734375,39.55078125,10.25390625,50.29296875
1508291750340.7698,20.99609375,34.66796875,40.0390625,-18.06640625,18.5546875
1508291750344.676,-2.9296875,33.203125,36.62109375,-48.33984375,-11.71875
1508291750348.5823,4.8828125,34.1796875,31.73828125,-76.171875,-14.6484375
1508291750352.4885,20.99609375,30.2734375,35.64453125,-83.49609375,13.671875
1508291750356.3948,23.4375,26.85546875,43.45703125,-80.078125,55.17578125
1508291750360.301,22.4609375,24.4140625,49.8046875,-85.44921875,56.640625
1508291750364.2073,5.859375,21.484375,45.41015625,-108.3984375,18.5546875
1508291750368.1135,10.7421875,23.92578125,44.921875,-111.328125,25.87890625
1508291750372.0198,30.2734375,27.83203125,52.24609375,-82.03125,22.4609375
1508291750375.926,26.3671875,29.296875,48.33984375,-115.72265625,31.25
1508291750377.9873,2.44140625,26.85546875,41.015625,-187.5,49.8046875
1508291750381.8936,-4.39453125,24.90234375,40.52734375,-215.8203125,33.203125
1508291750385.7998,14.16015625,27.34375,47.8515625,-208.0078125,20.5078125
1508291750389.706,18.5546875,25.390625,47.36328125,-213.37890625,60.546875
1508291750393.6123,5.37109375,22.4609375,43.45703125,-232.91015625,79.1015625
1508291750397.5186,1.953125,27.34375,49.31640625,-235.3515625,44.43359375
1508291750401.4248,18.06640625,29.78515625,62.5,-208.49609375,55.17578125
1508291750405.331,25.87890625,29.296875,63.96484375,-175.78125,57.6171875
1508291750409.2373,20.01953125,30.76171875,53.22265625,-179.19921875,24.4140625
1508291750413.1436,-1.953125,29.296875,61.5234375,-173.828125,26.85546875
1508291750417.0498,1.46484375,23.92578125,63.4765625,-138.18359375,34.1796875
1508291750420.956,22.94921875,21.97265625,62.98828125,-117.1875,41.50390625
1508291750423.019,20.5078125,22.94921875,74.70703125,-109.86328125,62.5
1508291750426.9253,10.7421875,23.4375,77.63671875,-97.65625,27.34375
1508291750430.8315,11.71875,27.34375,70.3125,-67.3828125,-2.44140625
1508291750434.7378,27.83203125,29.296875,63.96484375,-37.109375,28.3203125
1508291750438.644,28.3203125,30.2734375,62.98828125,-22.94921875,30.76171875
1508291750442.5503,10.25390625,31.25,53.7109375,-26.85546875,-28.3203125
1508291750446.4565,4.39453125,29.296875,50.29296875,-23.92578125,-12.6953125
1508291750450.3628,19.53125,27.83203125,51.26953125,-4.8828125,27.34375
1508291750454.269,26.3671875,27.34375,55.17578125,-2.44140625,50.29296875
1508291750458.1753,3.41796875,25.390625,66.89453125,-3.41796875,68.359375
1508291750462.0815,-5.859375,27.83203125,60.05859375,0.9765625,20.99609375
1508291750465.9878,10.7421875,34.66796875,57.6171875,23.92578125,9.765625
1508291750468.0535,15.13671875,38.0859375,57.12890625,33.203125,23.92578125
1508291750471.9597,11.23046875,33.69140625,45.41015625,28.80859375,9.765625
1508291750475.866,-5.37109375,30.76171875,39.0625,26.85546875,-26.85546875
1508291750479.7722,-2.44140625,29.296875,45.41015625,37.59765625,-3.90625
1508291750483.6785,14.6484375,26.85546875,55.17578125,73.2421875,11.23046875
1508291750487.5847,13.671875,25.390625,59.08203125,111.81640625,13.671875
1508291750491.491,-3.90625,24.90234375,47.36328125,111.328125,16.11328125
1508291750495.3972,-6.34765625,29.296875,35.15625,105.95703125,-33.69140625
1508291750499.3035,15.625,28.80859375,48.828125,140.13671875,-11.71875
1508291750503.2097,20.5078125,25.87890625,48.828125,169.43359375,4.8828125
1508291750507.116,-3.90625,27.83203125,32.2265625,164.55078125,-29.78515625
1508291750511.0222,-11.71875,28.3203125,29.78515625,164.0625,-21.97265625
1508291750513.1035,5.859375,28.3203125,31.73828125,182.12890625,10.7421875
1508291750517.0098,13.671875,29.296875,24.4140625,190.91796875,2.9296875
1508291750520.916,8.7890625,24.90234375,18.06640625,190.91796875,-16.11328125
1508291750524.8223,10.25390625,25.390625,17.578125,198.2421875,-8.7890625
1508291750528.7285,5.859375,30.2734375,25.390625,193.359375,-0.9765625
1508291750532.6348,-17.578125,29.78515625,30.2734375,176.7578125,-12.20703125
1508291750536.541,-28.80859375,28.3203125,25.87890625,173.828125,-40.52734375
1508291750540.4473,-36.62109375,29.296875,30.76171875,163.0859375,-29.78515625
1508291750544.3535,-37.109375,24.4140625,42.96875,163.0859375,-9.765625
1508291750548.2598,-31.25,19.04296875,46.875,167.48046875,-0.48828125
1508291750552.166,-34.66796875,23.92578125,42.96875,157.71484375,-15.13671875
1508291750556.0723,-51.7578125,24.90234375,40.0390625,141.11328125,-19.53125
1508291750558.1191,-44.43359375,25.390625,44.43359375,150.390625,-8.7890625
1508291750562.0254,-20.01953125,28.3203125,45.41015625,164.55078125,-5.859375
1508291750565.9316,-20.5078125,26.3671875,41.9921875,159.1796875,11.71875
1508291750569.838,-34.66796875,26.85546875,43.45703125,148.4375,36.1328125
1508291750573.7441,-40.0390625,27.83203125,43.45703125,140.13671875,28.3203125
1508291750577.6504,-24.4140625,31.73828125,39.55078125,149.4140625,-4.8828125
1508291750581.5566,-15.13671875,32.71484375,44.43359375,148.92578125,-15.13671875
1508291750585.463,-22.94921875,33.203125,46.875,128.41796875,-27.83203125
1508291750589.3691,-36.1328125,35.15625,40.52734375,99.12109375,-24.4140625
1508291750593.2754,-26.85546875,34.1796875,30.76171875,96.6796875,-39.55078125
1508291750597.1816,-14.6484375,35.64453125,28.80859375,95.703125,-36.62109375
1508291750601.088,-22.4609375,35.64453125,38.0859375,82.51953125,16.6015625
1508291750618.158,-37.109375,34.66796875,35.64453125,69.3359375,-1.46484375
1508291750622.0642,-36.1328125,33.203125,43.45703125,61.03515625,-12.20703125
1508291750625.9705,-19.53125,33.69140625,53.22265625,57.12890625,24.4140625
1508291750629.8767,-19.53125,33.69140625,47.36328125,43.45703125,20.99609375
1508291750633.783,-36.62109375,31.25,35.15625,23.4375,3.41796875
1508291750637.6892,-36.1328125,33.69140625,23.92578125,15.13671875,-5.859375
1508291750641.5955,-20.5078125,36.1328125,25.87890625,27.83203125,-4.8828125
1508291750645.5017,-17.08984375,32.71484375,38.57421875,36.1328125,-1.953125
1508291750649.408,-30.76171875,29.296875,52.24609375,19.04296875,-33.69140625
1508291750653.3142,-38.0859375,29.296875,46.38671875,-3.41796875,-21.484375
1508291750657.2205,-15.13671875,30.2734375,44.921875,10.7421875,-5.859375
1508291750661.1267,-6.34765625,27.34375,45.41015625,25.390625,-25.390625
1508291750663.1975,-19.53125,27.83203125,28.80859375,8.7890625,-30.76171875
1508291750667.1038,-27.83203125,27.34375,18.5546875,0.0,-29.78515625
1508291750671.01,-12.6953125,21.484375,27.34375,7.8125,15.13671875
1508291750674.9163,0.0,22.94921875,34.1796875,4.39453125,22.94921875
1508291750678.8225,-18.06640625,23.92578125,28.3203125,-0.48828125,12.20703125
1508291750682.7288,-36.1328125,20.5078125,21.97265625,-13.18359375,5.859375
1508291750686.635,-31.25,25.87890625,26.3671875,-11.71875,-41.015625
1508291750690.5413,-11.71875,26.3671875,37.109375,-2.44140625,-28.3203125
1508291750694.4475,-7.8125,22.94921875,34.66796875,-8.30078125,0.9765625
1508291750698.3538,-17.08984375,26.3671875,27.83203125,-13.18359375,-42.48046875
1508291750702.26,-19.53125,23.92578125,48.828125,-9.27734375,-0.9765625
1508291750706.1663,-4.39453125,21.484375,56.640625,5.37109375,29.78515625
1508291750708.2212,6.8359375,22.4609375,55.6640625,12.20703125,-17.08984375
1508291750712.1274,1.953125,23.92578125,55.17578125,-7.32421875,-19.53125
1508291750716.0337,-6.8359375,23.92578125,52.734375,-28.80859375,-11.71875
1508291750719.94,15.625,24.4140625,54.6875,-11.23046875,38.57421875
1508291750723.8462,34.66796875,31.73828125,51.26953125,-18.06640625,84.9609375
1508291750727.7524,18.06640625,36.62109375,41.015625,-54.19921875,78.125
1508291750731.6587,-1.46484375,35.15625,34.66796875,-78.125,30.76171875
1508291750735.565,1.953125,33.69140625,36.62109375,-73.73046875,2.9296875
1508291750739.4712,12.6953125,30.2734375,29.78515625,-69.82421875,32.71484375
1508291750743.3774,17.578125,29.296875,22.94921875,-88.37890625,59.5703125
1508291750747.2837,2.9296875,37.109375,26.3671875,-91.796875,18.5546875
1508291750751.19,-4.8828125,37.59765625,15.625,-88.37890625,0.48828125
1508291750753.2734,7.8125,33.69140625,7.8125,-80.078125,19.53125
1508291750757.1797,15.625,33.69140625,14.16015625,-71.77734375,4.8828125
1508291750761.086,10.7421875,31.25,21.484375,-67.87109375,5.859375
1508291750764.9922,1.46484375,31.25,23.4375,-68.84765625,-6.8359375
1508291750768.8984,12.20703125,35.64453125,27.34375,-64.94140625,-19.53125
1508291750772.8047,13.671875,33.203125,30.76171875,-60.546875,13.671875
1508291750776.711,-0.9765625,29.296875,23.92578125,-71.2890625,7.8125
1508291750780.6172,-10.25390625,34.66796875,17.08984375,-71.2890625,-1.953125
1508291750784.5234,4.39453125,33.203125,14.16015625,-58.10546875,-4.39453125
1508291750788.4297,18.5546875,31.25,26.85546875,-50.78125,-1.46484375
1508291750792.336,11.23046875,34.66796875,27.34375,-45.41015625,-4.8828125
1508291750796.2422,-0.9765625,34.1796875,12.6953125,-55.17578125,-19.53125
1508291750798.2852,1.953125,31.25,14.16015625,-47.8515625,-20.5078125
1508291750802.1914,14.6484375,25.390625,24.90234375,-24.90234375,-18.06640625
1508291750806.0977,14.16015625,27.34375,27.34375,-30.2734375,-25.390625
1508291750810.004,0.9765625,33.203125,30.2734375,-45.41015625,-1.953125
1508291750813.9102,-1.46484375,33.69140625,33.69140625,-41.9921875,2.44140625
1508291750817.8164,11.23046875,30.2734375,25.87890625,-25.390625,-20.5078125
1508291750821.7227,5.859375,27.34375,18.06640625,-34.1796875,-23.4375
1508291750825.629,-6.8359375,29.296875,11.71875,-52.24609375,-36.62109375
1508291750829.5352,-13.671875,30.76171875,18.5546875,-54.6875,-42.48046875
1508291750833.4414,-1.953125,29.78515625,36.1328125,-37.59765625,-17.08984375
1508291750837.3477,3.41796875,30.76171875,23.4375,-27.83203125,-9.27734375
1508291750841.254,-18.5546875,28.3203125,9.27734375,-44.921875,3.41796875
1508291750843.317,-28.80859375,27.34375,11.71875,-49.8046875,-9.27734375
1508291750847.2231,-11.71875,34.1796875,20.5078125,-33.69140625,-42.48046875
1508291750851.1294,-0.9765625,37.59765625,27.83203125,-30.76171875,-36.62109375
1508291750855.0356,-3.41796875,37.109375,24.90234375,-38.0859375,-20.5078125
1508291750858.942,-16.11328125,32.71484375,15.13671875,-43.9453125,-45.41015625
1508291750862.8481,-15.13671875,28.80859375,16.11328125,-39.0625,-11.23046875
1508291750866.7544,-8.30078125,30.2734375,18.06640625,-32.71484375,58.59375
1508291750870.6606,-7.8125,30.76171875,11.23046875,-46.875,6.8359375
1508291750874.567,-19.04296875,33.69140625,21.484375,-53.7109375,1.953125
1508291750878.4731,-26.85546875,32.71484375,19.04296875,-43.9453125,-10.25390625
1508291750882.3794,-9.27734375,30.76171875,22.94921875,-33.69140625,-24.4140625
1508291750886.2856,-1.46484375,28.80859375,39.55078125,-31.25,-3.41796875
1508291750888.349,-9.765625,24.90234375,41.50390625,-32.71484375,26.85546875
1508291750892.2554,-17.08984375,20.5078125,36.1328125,-37.109375,32.2265625
1508291750896.1616,-1.46484375,16.6015625,41.9921875,-34.66796875,-26.85546875
1508291750900.0679,4.39453125,20.99609375,47.8515625,-29.78515625,-50.29296875
1508291750903.974,-11.23046875,28.3203125,39.55078125,-37.109375,-27.83203125
1508291750907.8804,-21.97265625,34.1796875,33.69140625,-48.33984375,6.8359375
1508291750911.7866,-14.6484375,34.1796875,27.34375,-38.57421875,3.41796875
1508291750915.6929,3.90625,34.1796875,27.83203125,-26.85546875,-5.37109375
1508291750919.599,8.30078125,36.1328125,39.0625,-22.4609375,23.4375
1508291750923.5054,-3.90625,39.55078125,31.25,-30.76171875,14.6484375
1508291750927.4116,-5.859375,40.52734375,20.99609375,-24.90234375,16.11328125
1508291750931.3179,1.46484375,35.64453125,22.94921875,-6.34765625,34.1796875
1508291750933.3809,5.859375,34.66796875,21.97265625,-2.9296875,-12.20703125
1508291750937.287,2.44140625,38.57421875,12.20703125,-7.32421875,-19.04296875
1508291750941.1934,2.44140625,39.55078125,8.7890625,0.9765625,5.859375
1508291750945.0996,1.953125,32.2265625,17.08984375,2.9296875,8.30078125
1508291750949.0059,-9.765625,25.87890625,24.4140625,-12.20703125,19.53125
1508291750952.912,-22.94921875,26.85546875,21.484375,-18.06640625,15.625
1508291750956.8184,-42.48046875,21.484375,19.53125,-35.64453125,-24.90234375
1508291750960.7246,-20.5078125,24.90234375,35.64453125,-18.06640625,-38.0859375
1508291750964.6309,-0.48828125,28.80859375,42.96875,4.8828125,-7.32421875
1508291750968.537,-14.6484375,25.87890625,32.71484375,0.0,5.859375
1508291750972.4434,-20.01953125,32.71484375,27.34375,0.9765625,-10.25390625
1508291750976.3496,-6.8359375,37.109375,41.9921875,5.37109375,27.34375
1508291750993.4238,7.8125,35.64453125,51.7578125,17.578125,75.1953125
1508291750997.33,7.32421875,31.25,42.96875,12.20703125,21.97265625
1508291751001.2363,-5.859375,27.34375,48.828125,1.46484375,10.7421875
1508291751005.1426,-10.7421875,25.390625,58.59375,16.6015625,60.05859375
1508291751009.0488,-3.90625,24.90234375,56.15234375,28.80859375,63.4765625
1508291751012.955,-7.8125,24.4140625,43.9453125,14.6484375,41.015625
1508291751016.8613,-25.390625,29.296875,47.36328125,1.46484375,-15.625
1508291751020.7676,-24.90234375,35.15625,51.7578125,3.41796875,-72.75390625
1508291751024.6738,-7.32421875,37.59765625,45.41015625,18.06640625,-71.77734375
1508291751028.58,-10.7421875,35.15625,41.50390625,17.08984375,-47.36328125
1508291751032.4863,-20.5078125,29.296875,42.96875,-0.48828125,-36.1328125
1508291751036.3926,-30.76171875,27.83203125,51.7578125,-5.37109375,-17.08984375
1508291751038.4556,-21.484375,28.80859375,51.26953125,3.90625,-31.25
1508291751042.3618,-7.8125,31.25,45.8984375,9.27734375,-11.23046875
1508291751046.268,-10.25390625,37.59765625,42.96875,3.90625,27.83203125
1508291751050.1743,-23.92578125,38.57421875,37.109375,-9.765625,26.3671875
1508291751054.0806,-20.5078125,31.73828125,40.52734375,-3.90625,23.92578125
1508291751057.9868,-3.41796875,26.3671875,42.48046875,6.8359375,23.92578125
1508291751061.893,0.48828125,28.80859375,45.41015625,3.41796875,25.390625
1508291751065.7993,-13.18359375,32.71484375,59.08203125,-4.39453125,16.6015625
1508291751069.7056,-14.6484375,31.73828125,40.52734375,-3.90625,-31.73828125
1508291751073.6118,-4.8828125,31.73828125,31.25,-0.9765625,-43.45703125
1508291751077.518,-5.859375,34.1796875,51.7578125,0.9765625,-17.08984375
1508291751081.4243,-14.6484375,33.69140625,49.31640625,-0.9765625,-36.62109375
1508291751082.989,-28.3203125,30.2734375,36.62109375,-14.6484375,-30.2734375
1508291751086.8953,-16.6015625,27.34375,38.57421875,-2.44140625,-3.90625
1508291751090.8015,-6.34765625,25.87890625,42.48046875,3.90625,-2.9296875
1508291751094.7078,-21.97265625,26.3671875,43.45703125,-7.8125,-36.62109375
1508291751098.614,-35.64453125,31.73828125,44.921875,-24.4140625,-29.296875
1508291751102.5203,-26.3671875,36.62109375,47.36328125,-24.90234375,24.4140625
1508291751106.4265,-15.625,39.0625,50.29296875,-16.11328125,34.1796875
1508291751110.3328,-20.99609375,41.9921875,44.921875,-17.578125,19.53125
1508291751114.239,-32.71484375,39.55078125,37.109375,-26.85546875,-11.23046875
1508291751118.1453,-36.1328125,30.76171875,36.1328125,-26.3671875,-25.87890625
1508291751122.0515,-22.4609375,21.97265625,47.36328125,-4.39453125,25.390625
1508291751125.9578,-20.5078125,21.484375,57.12890625,0.9765625,40.0390625
1508291751128.0198,-35.15625,22.4609375,48.33984375,-18.06640625,-3.90625
1508291751131.926,-31.25,25.87890625,50.78125,-20.01953125,-20.99609375
1508291751135.8323,-4.8828125,33.203125,59.5703125,9.765625,10.7421875
1508291751139.7385,3.90625,35.64453125,53.7109375,23.4375,12.20703125
1508291751143.6448,-15.625,36.62109375,49.8046875,8.30078125,-3.90625
1508291751147.551,-30.2734375,42.96875,58.10546875,-1.46484375,4.39453125
1508291751151.4573,-21.484375,40.0390625,64.94140625,16.6015625,-13.18359375
1508291751155.3635,-19.53125,31.25,63.4765625,21.97265625,-31.73828125
1508291751159.2698,-28.3203125,26.85546875,62.5,7.32421875,-34.66796875
1508291751163.176,-20.01953125,28.3203125,64.94140625,22.4609375,-1.953125
1508291751167.0823,-0.9765625,31.25,57.6171875,49.8046875,-2.9296875
1508291751170.9885,-6.34765625,31.73828125,50.29296875,41.9921875,-15.13671875
1508291751173.051,-11.23046875,31.73828125,50.29296875,29.296875,33.203125
1508291751176.9573,-32.71484375,26.85546875,50.29296875,20.5078125,43.9453125
1508291751180.8635,-32.71484375,20.99609375,51.26953125,20.99609375,22.4609375
1508291751184.7698,-9.765625,17.578125,58.10546875,34.1796875,21.97265625
1508291751188.676,-18.5546875,12.6953125,68.359375,35.64453125,0.0
1508291751192.5823,-28.80859375,14.6484375,62.98828125,35.15625,7.32421875
1508291751196.4885,-31.25,19.53125,63.96484375,39.0625,24.90234375
1508291751200.3948,-6.8359375,23.92578125,65.4296875,52.734375,-10.25390625
1508291751204.301,4.8828125,26.3671875,65.91796875,55.17578125,-2.9296875
1508291751208.2073,-9.765625,26.3671875,72.265625,51.7578125,56.15234375
1508291751212.1135,-16.6015625,27.83203125,70.80078125,45.8984375,88.8671875
1508291751216.0198,-2.9296875,25.390625,72.75390625,53.22265625,85.9375
1508291751218.0854,8.7890625,20.99609375,69.82421875,58.10546875,56.640625
1508291751221.9917,0.9765625,22.94921875,62.5,52.24609375,48.828125
1508291751225.898,-17.08984375,25.87890625,49.8046875,40.0390625,39.0625
1508291751229.8042,-2.9296875,27.34375,42.96875,43.9453125,-11.23046875
1508291751233.7104,18.5546875,29.78515625,39.55078125,51.7578125,-7.32421875
1508291751237.6167,4.8828125,26.85546875,36.62109375,44.921875,33.69140625
1508291751241.523,-11.23046875,23.92578125,33.69140625,32.71484375,10.7421875
1508291751245.4292,-12.6953125,21.97265625,35.15625,26.3671875,-30.76171875
1508291751249.3354,-4.8828125,19.04296875,45.8984375,41.50390625,-16.6015625
1508291751253.2417,-5.859375,20.01953125,41.015625,47.8515625,14.6484375
1508291751257.148,-15.625,27.34375,26.3671875,38.0859375,1.46484375
1508291751261.0542,-14.16015625,34.1796875,20.99609375,38.57421875,7.8125
1508291751263.1355,1.46484375,36.62109375,21.97265625,49.8046875,33.203125
1508291751267.0417,10.7421875,38.57421875,20.99609375,54.19921875,26.85546875
1508291751270.948,2.44140625,38.0859375,20.01953125,50.29296875,15.13671875
1508291751274.8542,-8.30078125,33.203125,19.04296875,43.9453125,10.7421875
1508291751278.7605,-0.48828125,29.296875,24.4140625,50.29296875,24.4140625
1508291751282.6667,12.6953125,32.71484375,27.34375,56.15234375,9.765625
1508291751286.573,10.25390625,33.203125,19.53125,53.22265625,-51.7578125
1508291751290.4792,-2.44140625,31.73828125,12.6953125,41.015625,-32.2265625
1508291751294.3855,2.9296875,36.1328125,25.390625,56.15234375,34.1796875
1508291751298.2917,20.5078125,35.15625,26.85546875,62.5,21.484375
1508291751302.198,16.6015625,35.15625,22.4609375,39.0625,-25.390625
1508291751306.1042,-7.8125,29.78515625,25.87890625,31.25,3.41796875
1508291751308.6504,-17.08984375,19.04296875,20.5078125,36.62109375,26.3671875
1508291751312.5566,-2.44140625,18.5546875,16.6015625,47.8515625,-17.578125
1508291751316.463,0.0,21.97265625,17.08984375,47.8515625,-0.48828125
1508291751320.3691,-15.625,27.83203125,15.625,44.921875,32.71484375
1508291751324.2754,-12.6953125,24.90234375,12.6953125,34.1796875,30.2734375
1508291751328.1816,12.20703125,22.4609375,11.71875,49.31640625,14.16015625
1508291751332.088,20.99609375,33.203125,15.13671875,52.734375,-18.06640625
1508291751335.9941,5.37109375,34.66796875,26.3671875,35.15625,-31.73828125
1508291751339.9004,-14.6484375,32.71484375,32.71484375,36.1328125,-3.90625
1508291751343.8066,-8.7890625,34.66796875,32.71484375,54.19921875,18.06640625
1508291751347.713,4.39453125,31.25,34.66796875,74.70703125,29.296875
1508291751351.6191,2.9296875,32.2265625,37.109375,100.09765625,28.80859375
1508291751368.1926,-9.27734375,34.66796875,34.66796875,113.28125,38.0859375
1508291751372.0989,0.48828125,40.0390625,37.59765625,121.58203125,54.6875
1508291751376.0051,18.5546875,46.38671875,43.9453125,143.06640625,20.01953125
1508291751379.9114,20.99609375,40.52734375,50.78125,158.203125,13.18359375
1508291751383.8176,3.90625,35.15625,46.38671875,147.4609375,18.5546875
1508291751387.7239,-4.39453125,34.1796875,32.71484375,129.39453125,-27.83203125
1508291751391.6301,8.7890625,32.71484375,47.8515625,136.23046875,-11.23046875
1508291751395.5364,8.30078125,29.78515625,66.40625,143.5546875,3.41796875
1508291751399.4426,-1.46484375,28.3203125,71.77734375,138.18359375,33.69140625
1508291751403.3489,-12.20703125,30.2734375,74.70703125,119.140625,18.06640625
1508291751407.2551,-0.48828125,31.73828125,84.47265625,118.1640625,-23.4375
1508291751411.1614,11.71875,33.69140625,95.21484375,137.6953125,24.90234375
1508291751413.2239,3.41796875,36.1328125,83.49609375,123.53515625,-1.46484375
1508291751417.1301,-14.6484375,32.71484375,72.265625,100.5859375,-20.99609375
1508291751421.0364,-10.25390625,34.1796875,77.63671875,114.2578125,18.06640625
1508291751424.9426,0.48828125,37.59765625,77.63671875,109.86328125,27.83203125
1508291751428.8489,-1.953125,37.59765625,70.3125,84.47265625,20.99609375
1508291751432.7551,-16.11328125,36.62109375,65.4296875,69.82421875,-27.83203125
1508291751436.6614,-20.01953125,34.1796875,71.2890625,59.08203125,-4.8828125
1508291751440.5676,-5.859375,30.76171875,83.49609375,58.59375,14.6484375
1508291751444.4739,-1.953125,32.2265625,83.49609375,55.17578125,-15.625
1508291751448.3801,-18.06640625,33.203125,69.3359375,28.3203125,-20.99609375
1508291751452.2864,-11.71875,29.296875,80.078125,22.94921875,2.9296875
1508291751456.1926,14.16015625,33.69140625,98.6328125,60.05859375,8.30078125
1508291751458.2542,15.13671875,36.62109375,106.4453125,68.84765625,2.9296875
1508291751462.1604,-18.5546875,31.73828125,118.1640625,21.484375,22.94921875
1508291751466.0667,-35.64453125,26.85546875,131.8359375,-4.8828125,20.5078125
1508291751469.973,-9.765625,25.390625,132.32421875,40.52734375,8.7890625
1508291751473.8792,-0.9765625,24.4140625,120.1171875,70.80078125,15.13671875
1508291751477.7854,-15.13671875,21.97265625,109.86328125,74.70703125,18.5546875
1508291751481.6917,-24.90234375,23.92578125,101.07421875,79.58984375,2.44140625
1508291751485.598,-7.32421875,27.34375,99.609375,101.07421875,18.06640625
1508291751489.5042,5.859375,29.296875,93.26171875,121.09375,21.484375
1508291751493.4104,2.9296875,28.80859375,97.16796875,114.2578125,4.39453125
1508291751497.3167,-11.71875,23.4375,109.375,114.74609375,51.26953125
1508291751501.223,-19.53125,20.99609375,95.703125,118.1640625,43.45703125
1508291751503.0334,-10.7421875,24.4140625,92.7734375,123.53515625,16.11328125
1508291751506.9397,-8.30078125,23.92578125,86.9140625,128.41796875,14.6484375
1508291751510.846,-10.25390625,23.92578125,68.84765625,124.0234375,27.83203125
1508291751514.7522,-10.7421875,25.390625,59.08203125,124.51171875,21.484375
1508291751518.6584,-2.44140625,24.4140625,61.03515625,136.71875,5.37109375
1508291751522.5647,-2.9296875,16.6015625,72.265625,135.25390625,26.3671875
1508291751526.471,-8.7890625,16.6015625,75.68359375,125.48828125,12.20703125
1508291751530.3772,-26.3671875,22.94921875,67.87109375,123.046875,-15.625
1508291751534.2834,-19.53125,22.94921875,65.4296875,123.046875,-8.30078125
1508291751538.1897,-7.8125,26.85546875,75.1953125,129.39453125,-14.16015625
1508291751542.096,-12.6953125,31.25,71.2890625,134.27734375,-38.0859375
1508291751546.0022,-21.97265625,30.76171875,63.96484375,118.65234375,-19.04296875
1508291751548.0671,-16.6015625,27.83203125,61.03515625,127.9296875,-25.390625
1508291751551.9734,-0.48828125,20.5078125,64.94140625,135.7421875,-20.99609375
1508291751555.8796,-6.8359375,15.13671875,61.5234375,124.0234375,-26.3671875
1508291751559.786,-24.4140625,15.625,60.546875,114.2578125,-45.8984375
1508291751563.6921,-27.34375,17.08984375,73.73046875,109.375,-62.5
1508291751567.5984,-15.13671875,15.625,82.51953125,136.71875,-57.6171875
1508291751571.5046,-9.27734375,14.6484375,81.54296875,124.0234375,-18.5546875
1508291751575.411,-16.6015625,20.01953125,62.01171875,60.546875,-36.62109375
1508291751579.3171,-20.01953125,24.4140625,56.15234375,17.578125,-34.1796875
1508291751583.2234,-2.9296875,24.90234375,69.82421875,-1.953125,13.18359375
1508291751587.1296,3.90625,22.94921875,55.17578125,-29.296875,13.18359375
1508291751591.036,-11.23046875,19.04296875,42.48046875,-60.05859375,15.625
1508291751593.1182,-26.85546875,14.6484375,44.43359375,-78.125,0.0
1508291751597.0244,-12.6953125,14.6484375,41.015625,-73.73046875,-8.7890625
1508291751600.9307,5.859375,14.16015625,31.73828125,-83.49609375,1.953125
1508291751604.837,0.48828125,17.08984375,34.66796875,-104.4921875,-4.8828125
1508291751608.7432,-14.16015625,23.4375,39.0625,-112.3046875,-4.8828125
1508291751612.6494,-7.32421875,23.92578125,33.203125,-103.515625,0.48828125
1508291751616.5557,8.30078125,29.296875,24.90234375,-93.75,2.44140625
1508291751620.462,6.8359375,28.80859375,17.08984375,-106.4453125,-52.24609375
1508291751624.3682,-8.7890625,20.01953125,33.203125,-111.81640625,-72.265625
1508291751628.2744,-8.30078125,22.4609375,49.8046875,-92.28515625,-30.2734375
1508291751632.1807,25.390625,15.625,48.828125,-69.3359375,-17.578125
1508291751636.087,20.99609375,11.71875,49.31640625,-69.82421875,-26.85546875
1508291751638.1294,-12.20703125,24.90234375,41.9921875,-85.44921875,-7.8125
1508291751642.0356,-19.04296875,28.3203125,29.78515625,-85.9375,-11.23046875
1508291751645.942,0.0,22.94921875,32.71484375,-69.3359375,-35.15625
1508291751649.8481,18.06640625,20.5078125,43.9453125,-63.96484375,-22.4609375
1508291751653.7544,11.23046875,18.5546875,48.33984375,-63.4765625,-13.671875
1508291751657.6606,-6.34765625,16.6015625,44.921875,-76.171875,-10.7421875
1508291751661.567,-1.953125,17.578125,39.55078125,-79.58984375,-35.15625
1508291751665.4731,13.18359375,17.08984375,39.0625,-71.77734375,-45.8984375
1508291751669.3794,11.23046875,16.6015625,40.52734375,-69.82421875,-29.296875
1508291751673.2856,2.44140625,23.92578125,34.66796875,-73.73046875,-60.546875
1508291751677.192,10.7421875,31.25,40.0390625,-64.94140625,-71.77734375
1508291751681.0981,23.4375,28.80859375,48.33984375,-43.9453125,-47.36328125
1508291751683.1619,23.4375,26.85546875,52.24609375,-46.875,-31.25
1508291751687.068,3.41796875,23.4375,51.26953125,-55.17578125,-14.16015625
1508291751690.9744,-7.32421875,19.53125,54.19921875,-47.8515625,-9.765625
1508291751694.8806,8.30078125,20.5078125,68.84765625,-32.71484375,-26.85546875
1508291751698.7869,25.87890625,23.92578125,73.2421875,-35.64453125,-28.80859375
1508291751702.693,21.484375,23.92578125,57.6171875,-45.8984375,-24.4140625
1508291751706.5994,4.8828125,24.4140625,46.38671875,-62.01171875,-73.2421875
1508291751710.5056,15.13671875,28.3203125,62.5,-55.6640625,-92.28515625
1508291751714.4119,22.94921875,28.80859375,70.80078125,-29.296875,-66.40625
1508291751718.318,18.06640625,28.3203125,63.4765625,-34.66796875,-44.43359375
1508291751722.2244,6.34765625,30.76171875,62.98828125,-48.33984375,-24.4140625
1508291751726.1306,11.71875,31.25,82.51953125,-27.34375,-11.71875
1508291751743.2708,33.203125,28.80859375,100.09765625,5.37109375,-19.04296875
1508291751747.177,28.3203125,29.78515625,87.40234375,3.41796875,-22.4609375
1508291751751.0833,11.71875,30.2734375,75.1953125,-12.20703125,-9.765625
1508291751754.9895,12.20703125,26.85546875,72.265625,-4.39453125,-20.99609375
1508291751758.8958,22.94921875,29.78515625,69.3359375,5.859375,-54.6875
1508291751762.802,21.97265625,34.66796875,60.05859375,-9.27734375,-50.78125
1508291751766.7083,2.9296875,37.109375,61.03515625,-19.04296875,4.8828125
1508291751770.6145,-7.32421875,33.69140625,69.82421875,-14.16015625,12.6953125
1508291751774.5208,4.39453125,27.83203125,69.3359375,0.9765625,-26.85546875
1508291751778.427,15.13671875,26.3671875,63.4765625,0.9765625,-51.26953125
1508291751782.3333,16.6015625,23.92578125,65.91796875,-8.7890625,-27.34375
1508291751786.2395,9.765625,32.71484375,68.359375,-1.953125,-61.03515625
1508291751788.282,20.01953125,41.9921875,66.89453125,5.859375,-77.63671875
1508291751792.1882,25.87890625,36.62109375,65.4296875,13.671875,-18.06640625
1508291751796.0945,18.06640625,30.2734375,63.4765625,11.23046875,-9.765625
1508291751800.0007,3.41796875,27.83203125,64.94140625,-1.953125,-17.578125
1508291751803.907,6.34765625,25.87890625,63.96484375,1.46484375,-43.45703125
1508291751807.8132,20.01953125,20.5078125,66.40625,7.32421875,-29.296875
1508291751811.7195,14.6484375,18.06640625,66.89453125,11.23046875,-27.34375
1508291751815.6257,5.859375,23.4375,69.82421875,12.20703125,-54.19921875
1508291751819.532,10.25390625,29.296875,71.2890625,16.11328125,-47.8515625
1508291751823.4382,22.94921875,30.2734375,60.546875,12.6953125,-57.12890625
1508291751827.3445,27.34375,25.87890625,72.265625,10.25390625,-23.4375
1508291751831.2507,11.71875,23.92578125,86.42578125,8.7890625,-1.46484375
1508291751833.208,-1.953125,20.99609375,84.9609375,2.44140625,0.9765625
1508291751837.1143,19.53125,18.06640625,89.84375,19.04296875,-17.578125
1508291751841.0205,28.80859375,21.97265625,94.7265625,41.015625,-5.37109375
1508291751844.9268,27.34375,26.3671875,88.8671875,44.43359375,10.25390625
1508291751848.833,22.94921875,32.2265625,80.56640625,50.78125,-5.37109375
1508291751852.7393,18.5546875,36.1328125,91.796875,65.4296875,2.9296875
1508291751856.6455,19.04296875,33.69140625,100.09765625,60.546875,8.30078125
1508291751860.5518,11.23046875,25.390625,99.609375,53.22265625,6.8359375
1508291751864.458,-3.90625,20.01953125,90.8203125,44.921875,-44.921875
1508291751868.3643,-3.90625,14.16015625,93.26171875,52.734375,-48.828125
1508291751872.2705,14.6484375,15.625,105.95703125,77.1484375,-5.37109375
1508291751876.1768,25.390625,21.97265625,93.75,80.56640625,-17.08984375
1508291751878.2214,10.25390625,21.97265625,79.58984375,73.73046875,-13.18359375
1508291751882.1277,10.25390625,25.87890625,77.63671875,75.68359375,5.37109375
1508291751886.034,20.99609375,32.2265625,81.0546875,87.890625,-12.20703125
1508291751889.9402,12.20703125,30.76171875,73.73046875,86.42578125,-25.87890625
1508291751893.8464,1.953125,24.90234375,71.2890625,68.84765625,-2.44140625
1508291751897.7527,-6.8359375,18.06640625,75.68359375,57.6171875,15.625
1508291751901.659,10.7421875,16.6015625,83.984375,76.171875,29.78515625
1508291751905.5652,21.484375,23.4375,83.0078125,96.19140625,21.484375
1508291751909.4714,12.6953125,28.80859375,72.75390625,82.03125,-31.25
1508291751913.3777,3.41796875,32.2265625,89.84375,80.56640625,-8.7890625
1508291751917.284,14.6484375,34.1796875,103.515625,111.81640625,27.83203125
1508291751921.1902,32.71484375,34.1796875,103.02734375,109.86328125,18.06640625
1508291751923.2537,26.3671875,31.25,100.09765625,93.26171875,4.39453125
1508291751927.16,12.6953125,29.296875,90.33203125,92.28515625,-6.34765625
1508291751931.0662,20.5078125,29.78515625,89.35546875,97.16796875,20.01953125
1508291751934.9724,37.109375,27.83203125,93.75,112.79296875,-13.18359375
1508291751938.8787,41.015625,24.90234375,95.703125,131.34765625,-15.13671875
1508291751942.785,22.94921875,32.71484375,94.7265625,131.34765625,22.94921875
1508291751946.6912,15.13671875,36.62109375,97.16796875,125.48828125,32.71484375
1508291751950.5974,26.85546875,35.15625,91.30859375,129.8828125,14.6484375
1508291751954.5037,20.99609375,34.66796875,94.7265625,139.16015625,12.20703125
1508291751958.41,12.6953125,27.83203125,101.5625,134.27734375,40.52734375
1508291751962.3162,2.9296875,23.4375,89.84375,123.53515625,28.80859375
1508291751966.2224,21.97265625,27.83203125,87.890625,155.2734375,22.94921875
1508291751968.2837,34.1796875,28.3203125,82.03125,182.6171875,27.83203125
1508291751972.19,20.99609375,23.92578125,79.1015625,175.29296875,14.6484375
1508291751976.0962,25.390625,28.80859375,75.68359375,173.33984375,-27.83203125
1508291751980.0024,31.25,41.50390625,78.125,176.7578125,-12.20703125
1508291751983.9087,21.484375,48.33984375,85.44921875,152.83203125,25.87890625
1508291751987.815,8.30078125,47.36328125,82.03125,143.5546875,17.08984375
1508291751991.7212,-10.7421875,43.9453125,73.2421875,145.01953125,21.97265625
1508291751995.6274,-11.23046875,45.41015625,66.89453125,120.60546875,-5.859375
1508291751999.5337,15.625,49.31640625,81.54296875,126.46484375,6.8359375
1508291752003.44,19.04296875,56.15234375,70.80078125,133.7890625,-2.9296875
1508291752007.3462,-2.9296875,63.4765625,41.015625,100.09765625,-20.99609375
1508291752011.2524,-1.46484375,63.96484375,43.9453125,92.7734375,19.04296875
1508291752013.3186,12.6953125,58.10546875,57.12890625,119.140625,54.19921875
1508291752017.2249,7.32421875,51.26953125,59.5703125,113.76953125,4.8828125
1508291752021.131,-2.9296875,44.921875,60.05859375,104.98046875,7.32421875
1508291752025.0374,-13.18359375,38.57421875,66.89453125,111.81640625,20.5078125
1508291752028.9436,2.44140625,35.64453125,79.58984375,128.90625,-23.4375
1508291752032.8499,21.97265625,38.0859375,82.51953125,146.97265625,-15.13671875
1508291752036.756,20.99609375,43.9453125,77.1484375,147.4609375,1.953125
1508291752040.6624,11.23046875,48.33984375,76.66015625,130.859375,4.8828125
1508291752044.5686,19.53125,43.45703125,83.984375,140.625,20.01953125
1508291752048.4749,27.83203125,39.55078125,75.68359375,157.2265625,27.34375
1508291752052.381,22.94921875,44.921875,68.84765625,149.4140625,34.66796875
1508291752056.2874,0.48828125,43.45703125,75.1953125,137.6953125,20.01953125
1508291752058.3494,-0.9765625,40.0390625,82.03125,157.2265625,13.18359375
1508291752062.2556,25.390625,43.9453125,80.078125,165.0390625,41.9921875
1508291752066.1619,34.66796875,45.8984375,73.73046875,123.046875,35.64453125
1508291752070.068,26.85546875,46.38671875,67.3828125,81.54296875,40.0390625
1508291752073.9744,16.6015625,52.734375,65.4296875,68.359375,48.33984375
1508291752077.8806,21.97265625,51.26953125,62.98828125,76.171875,26.3671875
1508291752081.7869,23.4375,42.48046875,56.640625,55.17578125,-4.8828125
1508291752085.693,9.27734375,41.9921875,61.03515625,34.1796875,-5.859375
1508291752089.5994,-4.8828125,40.52734375,64.94140625,50.29296875,6.8359375
1508291752093.5056,7.8125,36.1328125,65.4296875,52.24609375,-16.6015625
1508291752097.4119,20.99609375,35.15625,67.87109375,46.875,9.765625
1508291752101.318,16.6015625,37.59765625,68.359375,52.734375,21.484375
1508291752118.3904,6.34765625,41.9921875,61.5234375,49.8046875,-17.578125
1508291752122.2966,6.8359375,41.015625,56.15234375,47.8515625,-11.23046875
1508291752126.203,16.6015625,41.015625,64.453125,84.47265625,41.50390625
1508291752130.1091,13.671875,33.203125,62.01171875,122.0703125,10.25390625
1508291752134.0154,0.48828125,27.34375,59.5703125,143.5546875,-20.99609375
1508291752137.9216,5.37109375,31.73828125,54.6875,150.87890625,-42.96875
1508291752141.828,21.484375,32.71484375,60.05859375,152.83203125,-58.10546875
1508291752145.7341,20.01953125,31.25,81.54296875,173.828125,-17.08984375
1508291752149.6404,10.7421875,33.69140625,80.078125,185.05859375,41.50390625
1508291752153.5466,4.8828125,36.1328125,64.94140625,173.828125,85.44921875
1508291752157.453,13.18359375,34.1796875,67.87109375,174.31640625,44.921875
1508291752161.3591,26.3671875,32.71484375,77.63671875,189.453125,41.015625
1508291752162.9424,16.6015625,32.71484375,67.3828125,194.82421875,33.203125
1508291752166.8486,-6.34765625,30.76171875,55.6640625,180.6640625,-6.8359375
1508291752170.755,2.9296875,23.4375,57.12890625,186.03515625,24.90234375
1508291752174.6611,20.5078125,23.92578125,58.59375,214.35546875,26.3671875
1508291752178.5674,18.06640625,29.78515625,57.12890625,216.796875,-20.99609375
1508291752182.4736,-1.46484375,29.296875,47.8515625,189.94140625,-5.37109375
1508291752186.38,-2.9296875,28.80859375,50.78125,188.96484375,-13.18359375
1508291752190.2861,8.7890625,30.76171875,62.98828125,216.30859375,11.23046875
1508291752194.1924,5.859375,30.2734375,53.7109375,207.03125,26.85546875
1508291752198.0986,-12.6953125,30.2734375,46.875,169.43359375,14.6484375
1508291752202.005,-15.13671875,31.25,65.4296875,173.828125,29.296875
1508291752205.9111,7.8125,31.73828125,74.21875,207.03125,1.46484375
1508291752207.9543,13.671875,31.25,72.265625,207.51953125,-19.53125
1508291752211.8606,0.9765625,31.73828125,73.2421875,184.5703125,-8.30078125
1508291752215.7668,-7.8125,32.71484375,68.359375,166.015625,-28.80859375
1508291752219.673,6.8359375,30.2734375,61.5234375,187.98828125,-50.29296875
1508291752223.5793,10.25390625,27.83203125,55.17578125,194.3359375,-34.66796875
1508291752227.4856,5.859375,24.4140625,49.8046875,175.29296875,-15.13671875
1508291752231.3918,-7.32421875,24.4140625,56.15234375,154.78515625,54.19921875
1508291752235.298,-21.97265625,28.3203125,66.40625,153.80859375,38.57421875
1508291752239.2043,-14.16015625,27.34375,58.59375,150.87890625,0.0
1508291752243.1106,-9.27734375,26.3671875,57.6171875,61.03515625,27.34375
1508291752247.0168,-17.578125,27.83203125,65.91796875,-25.87890625,20.01953125
1508291752250.923,-14.16015625,23.4375,56.15234375,-52.24609375,-15.625
1508291752252.9883,4.39453125,18.5546875,58.10546875,-49.31640625,4.39453125
1508291752256.8945,5.859375,19.53125,63.4765625,-67.87109375,11.23046875
1508291752260.8008,-7.8125,21.97265625,59.5703125,-96.6796875,12.6953125
1508291752264.707,-4.8828125,20.99609375,54.19921875,-97.16796875,56.15234375
1508291752268.6133,16.11328125,20.01953125,54.19921875,-78.125,46.38671875
1508291752272.5195,11.71875,16.6015625,48.33984375,-76.171875,-1.953125
1508291752276.4258,-2.9296875,19.04296875,39.55078125,-92.7734375,0.48828125
1508291752280.332,-10.7421875,27.34375,36.1328125,-82.51953125,41.50390625
1508291752284.2383,0.48828125,31.73828125,37.59765625,-58.10546875,15.625
1508291752288.1445,8.30078125,29.296875,49.31640625,-50.78125,6.34765625
1508291752292.0508,8.30078125,23.4375,50.29296875,-56.640625,32.71484375
1508291752295.957,-4.8828125,21.484375,37.109375,-60.546875,-0.48828125
1508291752298.0183,-2.9296875,23.4375,33.203125,-45.8984375,-8.30078125
1508291752301.9246,23.92578125,27.34375,36.1328125,-36.62109375,25.87890625
1508291752305.8308,24.4140625,27.83203125,31.25,-36.1328125,13.18359375
1508291752309.737,0.9765625,24.90234375,36.62109375,-36.62109375,8.30078125
1508291752313.6433,-6.8359375,25.390625,51.7578125,-34.1796875,21.97265625
1508291752317.5496,6.8359375,23.92578125,57.6171875,-30.76171875,11.23046875
1508291752321.4558,10.25390625,18.5546875,66.40625,-32.2265625,13.671875
1508291752325.362,-11.71875,17.08984375,61.5234375,-33.203125,13.671875
1508291752329.2683,-20.01953125,16.6015625,64.94140625,-31.73828125,-1.46484375
1508291752333.1746,-0.48828125,15.625,86.42578125,-18.06640625,9.765625
1508291752337.0808,5.859375,18.06640625,84.9609375,-23.92578125,42.48046875
1508291752340.987,-9.27734375,19.53125,70.3125,-41.9921875,45.41015625
1508291752343.05,-18.06640625,20.01953125,63.4765625,-36.1328125,12.20703125
1508291752346.9563,-4.8828125,21.484375,72.265625,-8.30078125,20.99609375
1508291752350.8625,1.46484375,21.97265625,76.171875,0.48828125,2.9296875
1508291752354.7688,-7.8125,18.06640625,72.265625,-15.625,-31.25
1508291752358.675,-21.97265625,19.04296875,79.1015625,-24.4140625,8.7890625
1508291752362.5813,-19.04296875,22.94921875,78.61328125,-14.16015625,-10.25390625
1508291752366.4875,-2.9296875,22.4609375,76.66015625,9.765625,-24.4140625
1508291752370.3938,-5.859375,22.4609375,74.21875,2.9296875,-12.20703125
1508291752374.3,-14.16015625,21.97265625,78.125,-5.37109375,38.0859375
1508291752378.2063,-12.20703125,22.4609375,77.1484375,5.859375,61.03515625
1508291752382.1125,-0.48828125,21.97265625,64.94140625,0.48828125,26.3671875
1508291752386.0188,11.71875,24.90234375,65.91796875,7.8125,31.73828125
1508291752388.0818,2.9296875,23.92578125,71.2890625,17.578125,15.625
1508291752391.988,-6.34765625,19.53125,71.2890625,2.9296875,-6.8359375
1508291752395.8943,9.765625,23.4375,69.82421875,-5.859375,7.32421875
1508291752399.8005,15.625,25.87890625,73.2421875,6.34765625,28.3203125
1508291752403.7068,10.25390625,24.90234375,73.73046875,21.97265625,26.85546875
1508291752407.613,0.9765625,28.3203125,68.84765625,19.53125,40.0390625
1508291752411.5193,0.9765625,33.203125,61.5234375,14.16015625,31.25
1508291752415.4255,10.25390625,35.15625,64.94140625,5.37109375,-0.48828125
1508291752419.3318,12.20703125,32.71484375,76.171875,18.5546875,32.2265625
1508291752423.238,-0.9765625,31.73828125,66.89453125,18.5546875,39.55078125
1508291752427.1443,-4.39453125,30.2734375,63.96484375,1.953125,17.08984375
1508291752431.0505,14.6484375,28.80859375,72.75390625,-1.46484375,28.80859375
1508291752433.1362,22.4609375,26.3671875,76.171875,-11.23046875,19.53125
1508291752437.0425,-2.44140625,21.484375,70.80078125,-24.90234375,-32.2265625
1508291752440.9487,-18.06640625,20.5078125,70.3125,-18.06640625,-11.71875
1508291752444.855,-12.6953125,15.13671875,78.61328125,-6.34765625,25.390625
1508291752448.7612,-8.7890625,8.7890625,76.171875,-13.18359375,26.85546875
1508291752452.6675,-15.625,12.20703125,60.546875,-23.4375,55.6640625
1508291752456.5737,-22.4609375,17.08984375,56.15234375,-32.2265625,12.20703125
1508291752460.48,-6.34765625,18.5546875,68.84765625,-10.25390625,-4.8828125
1508291752464.3862,13.671875,19.04296875,69.3359375,5.37109375,31.73828125
1508291752468.2925,5.37109375,17.578125,62.98828125,-11.23046875,21.97265625
1508291752472.1987,-18.06640625,14.16015625,64.453125,-17.08984375,16.6015625
1508291752476.105,-9.765625,9.27734375,66.40625,9.27734375,22.4609375
1508291752493.1978,2.9296875,11.23046875,70.3125,26.3671875,11.71875
1508291752497.104,-3.41796875,13.671875,75.68359375,7.32421875,-27.83203125
1508291752501.0103,-13.671875,14.16015625,83.0078125,-10.7421875,17.578125
1508291752504.9165,-11.23046875,18.5546875,82.03125,3.41796875,39.55078125
1508291752508.8228,5.37109375,21.484375,77.1484375,36.62109375,24.90234375
1508291752512.729,12.6953125,20.01953125,70.80078125,36.1328125,41.50390625
1508291752516.6353,5.37109375,19.04296875,65.91796875,10.25390625,10.7421875
1508291752520.5415,-2.44140625,20.01953125,72.265625,6.8359375,27.83203125
1508291752524.4478,16.11328125,20.99609375,74.21875,25.87890625,41.50390625
1508291752528.354,26.3671875,19.53125,70.80078125,34.66796875,-1.46484375
1508291752532.2603,14.16015625,17.578125,73.2421875,34.66796875,16.11328125
1508291752536.1665,6.34765625,12.20703125,76.171875,24.90234375,12.6953125
1508291752538.21,23.4375,19.04296875,78.61328125,26.85546875,-6.34765625
1508291752542.1162,34.1796875,20.99609375,72.265625,46.38671875,-4.8828125
1508291752546.0225,20.5078125,10.25390625,69.82421875,48.828125,15.625
1508291752549.9287,5.37109375,13.18359375,74.21875,28.3203125,48.828125
1508291752553.835,9.765625,19.53125,67.87109375,27.34375,8.7890625
1508291752557.7412,17.578125,22.4609375,64.94140625,31.25,-2.44140625
1508291752561.6475,21.484375,17.578125,67.87109375,36.1328125,23.92578125
1508291752565.5537,18.06640625,13.671875,68.359375,47.8515625,6.34765625
1508291752569.46,12.20703125,18.5546875,63.4765625,54.6875,2.9296875
1508291752573.3662,26.3671875,20.5078125,64.453125,49.31640625,-50.29296875
1508291752577.2725,32.2265625,20.01953125,80.078125,59.08203125,-41.9921875
1508291752581.1787,18.06640625,18.5546875,74.70703125,78.125,3.41796875
1508291752583.319,9.27734375,16.6015625,60.546875,64.94140625,-7.8125
1508291752587.2253,24.90234375,18.5546875,69.3359375,94.23828125,-20.99609375
1508291752591.1316,30.2734375,21.97265625,85.44921875,147.94921875,-23.92578125
1508291752595.0378,20.99609375,26.85546875,83.984375,173.33984375,8.30078125
1508291752598.944,14.16015625,25.87890625,72.75390625,177.734375,2.44140625
1508291752602.8503,19.53125,21.97265625,71.2890625,171.875,12.6953125
1508291752606.7566,23.92578125,24.90234375,76.66015625,176.26953125,11.23046875
1508291752610.6628,23.92578125,28.80859375,83.0078125,189.94140625,1.46484375
1508291752614.569,-3.41796875,28.3203125,70.3125,186.5234375,6.8359375
1508291752618.4753,-1.46484375,25.390625,64.453125,187.01171875,-58.10546875
1508291752622.3816,24.90234375,25.390625,84.9609375,201.66015625,-49.8046875
1508291752626.2878,24.90234375,24.90234375,89.35546875,204.58984375,-6.8359375
1508291752628.347,19.04296875,20.99609375,81.0546875,203.125,-11.71875
1508291752632.2532,8.30078125,19.04296875,83.49609375,210.9375,-12.6953125
1508291752636.1594,20.99609375,17.08984375,101.5625,224.12109375,-5.37109375
1508291752640.0657,36.1328125,17.578125,101.07421875,221.19140625,44.43359375
1508291752643.972,23.4375,20.5078125,85.9375,205.078125,40.52734375
1508291752647.8782,-1.953125,29.296875,82.51953125,190.91796875,2.9296875
1508291752651.7844,2.9296875,35.15625,92.28515625,191.40625,40.52734375
1508291752655.6907,13.671875,31.25,96.6796875,183.10546875,57.6171875
1508291752659.597,2.9296875,38.57421875,84.47265625,161.62109375,29.78515625
1508291752663.5032,-9.765625,41.50390625,77.1484375,161.62109375,42.96875
1508291752667.4094,-2.44140625,32.2265625,69.82421875,180.6640625,47.36328125
1508291752671.3157,12.20703125,37.59765625,66.89453125,174.8046875,30.76171875
1508291752673.4036,1.953125,42.96875,66.89453125,166.015625,50.29296875
1508291752677.3098,-16.11328125,35.15625,63.96484375,172.8515625,73.73046875
1508291752681.216,-3.90625,33.203125,62.5,168.9453125,72.265625
1508291752685.1223,14.6484375,41.015625,62.98828125,161.1328125,48.33984375
1508291752689.0286,12.6953125,31.25,59.08203125,159.66796875,23.92578125
1508291752692.9348,-6.8359375,27.34375,54.6875,157.71484375,10.25390625
1508291752696.841,0.9765625,33.69140625,60.546875,152.83203125,12.20703125
1508291752700.7473,23.4375,38.0859375,62.98828125,140.625,-14.16015625
1508291752704.6536,17.08984375,37.59765625,70.3125,141.11328125,34.1796875
1508291752708.5598,11.23046875,24.4140625,88.37890625,154.78515625,87.890625
1508291752712.466,1.953125,34.1796875,86.42578125,144.53125,8.7890625
1508291752716.3723,7.32421875,40.52734375,87.890625,135.7421875,2.9296875
1508291752718.4114,13.18359375,35.64453125,93.26171875,125.0,44.43359375
1508291752722.3176,11.23046875,41.50390625,93.75,112.3046875,36.1328125
1508291752726.2239,-3.90625,43.9453125,87.40234375,106.93359375,24.4140625
1508291752730.1301,-1.46484375,40.0390625,85.44921875,126.953125,22.94921875
1508291752734.0364,12.6953125,41.9921875,100.09765625,127.9296875,5.37109375
1508291752737.9426,11.23046875,47.36328125,110.83984375,89.35546875,24.4140625
1508291752741.8489,-4.8828125,48.828125,101.5625,87.890625,26.85546875
1508291752745.7551,-9.765625,44.43359375,90.33203125,101.5625,-10.7421875
1508291752749.6614,11.23046875,45.41015625,104.00390625,114.74609375,-17.578125
1508291752753.5676,11.23046875,48.33984375,110.83984375,118.1640625,-11.23046875
1508291752757.4739,0.48828125,53.22265625,98.6328125,90.8203125,-20.99609375
1508291752761.3801,-4.8828125,54.6875,88.8671875,79.1015625,-29.78515625
1508291752762.963,5.37109375,53.22265625,93.26171875,100.09765625,6.34765625
1508291752766.8691,10.25390625,57.6171875,90.33203125,98.14453125,3.41796875
1508291752770.7754,-0.48828125,58.10546875,78.61328125,21.484375,-22.4609375
1508291752774.6816,-12.6953125,53.7109375,75.1953125,-74.70703125,12.6953125
1508291752778.588,-10.7421875,52.734375,79.58984375,-96.6796875,43.9453125
1508291752782.4941,-0.9765625,54.6875,71.2890625,-88.37890625,42.96875
1508291752786.4004,-2.44140625,59.08203125,54.6875,-101.5625,-3.90625
1508291752790.3066,-22.4609375,51.26953125,55.6640625,-117.67578125,-45.41015625
1508291752794.213,-18.5546875,46.38671875,79.1015625,-100.09765625,-13.671875
1508291752798.1191,-8.7890625,48.828125,75.68359375,-94.7265625,20.5078125
1508291752802.0254,-16.6015625,48.828125,64.94140625,-94.7265625,68.359375
1508291752805.9316,-18.5546875,53.22265625,61.03515625,-93.75,53.22265625
1508291752807.9746,-14.16015625,52.734375,50.29296875,-92.28515625,34.66796875
1508291752811.8809,-3.90625,49.31640625,49.31640625,-79.58984375,29.296875
1508291752815.787,-1.46484375,50.29296875,60.546875,-79.58984375,19.04296875
1508291752819.6934,-14.6484375,46.875,62.98828125,-99.609375,26.3671875
1508291752823.5996,-16.11328125,43.9453125,57.6171875,-109.375,29.296875
1508291752827.5059,-4.8828125,45.8984375,64.453125,-90.8203125,27.34375
1508291752831.412,-5.859375,44.43359375,64.94140625,-76.66015625,4.8828125
1508291752835.3184,-15.625,43.9453125,73.73046875,-79.1015625,16.6015625
1508291752839.2246,-28.80859375,47.8515625,72.265625,-90.33203125,-0.9765625
1508291752843.1309,-21.97265625,45.41015625,64.453125,-87.40234375,-29.78515625
1508291752847.037,-7.32421875,42.96875,71.77734375,-62.98828125,9.27734375
1508291752850.9434,-6.34765625,43.9453125,70.3125,-61.03515625,49.8046875
1508291752868.0176,-19.04296875,46.875,61.5234375,-78.125,65.4296875
1508291752871.9238,-10.7421875,52.734375,54.19921875,-68.84765625,44.43359375
1508291752875.83,2.44140625,47.8515625,57.12890625,-36.1328125,31.25
1508291752879.7363,-5.37109375,42.48046875,63.4765625,-33.203125,33.69140625
1508291752883.6426,-13.671875,40.0390625,56.640625,-60.05859375,7.32421875
1508291752887.5488,-20.5078125,37.59765625,41.015625,-67.3828125,15.625
1508291752891.455,-4.39453125,39.0625,43.9453125,-43.45703125,34.1796875
1508291752895.3613,11.71875,41.015625,61.5234375,-8.7890625,50.78125
1508291752899.2676,-13.671875,41.9921875,55.6640625,-13.671875,44.921875
1508291752903.1738,-31.73828125,41.015625,43.45703125,-42.96875,24.4140625
1508291752907.08,-7.32421875,38.57421875,48.33984375,-45.8984375,-3.90625
1508291752910.9863,-3.41796875,39.55078125,58.10546875,-47.36328125,0.0
1508291752913.051,-15.625,39.55078125,57.6171875,-47.8515625,32.71484375
1508291752916.9573,-24.90234375,39.55078125,55.6640625,-42.48046875,24.4140625
1508291752920.8635,-22.94921875,31.73828125,64.453125,-21.97265625,0.0
1508291752924.7698,-4.8828125,25.87890625,72.265625,-11.71875,6.34765625
1508291752928.676,-10.7421875,29.296875,74.70703125,-41.50390625,13.671875
1508291752932.5823,-28.80859375,28.3203125,71.2890625,-55.17578125,31.25
1508291752936.4885,-23.92578125,32.71484375,66.40625,-35.15625,39.55078125
1508291752940.3948,-8.30078125,36.1328125,75.1953125,-20.01953125,0.0
1508291752944.301,-6.34765625,31.73828125,79.1015625,-21.484375,-14.16015625
1508291752948.2073,-16.11328125,32.71484375,69.3359375,-45.8984375,-18.06640625
1508291752952.1135,-25.390625,32.71484375,76.66015625,-44.43359375,13.671875
1508291752956.0198,-15.13671875,29.296875,83.0078125,-4.8828125,28.80859375
1508291752958.0835,-7.32421875,30.2734375,81.0546875,3.41796875,37.59765625
1508291752961.9897,-18.06640625,28.3203125,76.171875,-26.3671875,23.92578125
1508291752965.896,-34.66796875,25.87890625,70.80078125,-28.3203125,-6.8359375
1508291752969.8022,-17.08984375,28.80859375,69.3359375,-5.859375,15.13671875
1508291752973.7085,5.37109375,26.3671875,66.89453125,-7.8125,23.4375
1508291752977.6147,-7.32421875,19.53125,63.96484375,-33.203125,8.30078125
1508291752981.521,-21.97265625,24.4140625,66.89453125,-56.640625,9.27734375
1508291752985.4272,-14.16015625,32.2265625,79.1015625,-29.78515625,-6.34765625
1508291752989.3335,-5.859375,31.25,79.58984375,-0.9765625,-4.8828125
1508291752993.2397,-3.90625,31.25,80.078125,-17.578125,1.46484375
1508291752997.146,-11.23046875,33.69140625,94.23828125,-29.296875,0.9765625
1508291753001.0522,-2.44140625,29.78515625,89.84375,-26.85546875,-13.18359375
1508291753003.1128,12.20703125,29.296875,89.84375,-22.4609375,1.953125
1508291753007.019,9.27734375,29.296875,91.796875,-15.625,13.18359375
1508291753010.9253,-0.9765625,29.78515625,80.56640625,-17.578125,-21.484375
1508291753014.8315,-0.9765625,31.73828125,76.66015625,-27.34375,-21.484375
1508291753018.7378,20.01953125,27.83203125,76.171875,-20.99609375,-5.859375
1508291753022.644,23.4375,27.34375,75.68359375,-23.4375,6.34765625
1508291753026.5503,12.20703125,32.71484375,72.75390625,-36.1328125,8.7890625
1508291753030.4565,4.39453125,35.15625,63.96484375,-47.36328125,-13.18359375
1508291753034.3628,20.5078125,34.66796875,55.6640625,-36.62109375,-41.9921875
1508291753038.269,33.69140625,34.66796875,66.89453125,-22.4609375,-11.23046875
1508291753042.1753,27.83203125,33.203125,70.3125,-17.578125,42.48046875
1508291753046.0815,19.04296875,29.78515625,54.19921875,-41.015625,41.015625
1508291753048.1455,19.04296875,29.78515625,54.6875,-41.9921875,34.1796875
1508291753052.0518,30.2734375,34.66796875,66.40625,-0.9765625,46.875
1508291753055.958,32.2265625,34.1796875,57.12890625,-8.7890625,30.76171875
1508291753059.8643,21.484375,33.69140625,47.8515625,-38.57421875,15.13671875
1508291753063.7705,16.11328125,31.73828125,55.6640625,-41.50390625,-20.01953125
1508291753067.6768,21.484375,27.34375,58.59375,-47.8515625,-34.66796875
1508291753071.583,25.87890625,32.2265625,63.96484375,-49.31640625,-5.859375
1508291753075.4893,12.6953125,32.71484375,55.6640625,-42.48046875,-13.671875
1508291753079.3955,6.34765625,29.296875,46.38671875,-33.69140625,-39.0625
1508291753083.3018,30.2734375,29.78515625,58.10546875,-3.90625,-25.87890625
1508291753087.208,40.52734375,30.76171875,53.22265625,-7.8125,-32.71484375
1508291753091.1143,23.4375,33.203125,48.33984375,-32.71484375,-20.99609375
1508291753093.1975,14.16015625,37.109375,48.33984375,-29.78515625,-9.27734375
1508291753097.1038,30.2734375,38.57421875,55.6640625,-3.41796875,-27.83203125
1508291753101.01,40.0390625,42.48046875,62.5,2.9296875,-27.34375
1508291753104.9163,32.71484375,41.50390625,58.10546875,-21.484375,-58.10546875
1508291753108.8225,17.578125,36.1328125,56.640625,-30.2734375,-67.87109375
1508291753112.7288,16.6015625,38.57421875,58.59375,0.9765625,-23.4375
1508291753116.635,32.2265625,41.50390625,57.6171875,14.16015625,20.99609375
1508291753120.5413,28.3203125,39.55078125,51.7578125,-6.34765625,-15.13671875
1508291753124.4475,22.4609375,38.57421875,57.12890625,-4.39453125,-41.015625
1508291753128.3538,25.87890625,38.57421875,60.546875,19.53125,8.7890625
1508291753132.26,37.59765625,33.203125,57.6171875,15.625,0.0
1508291753136.1663,28.80859375,32.71484375,62.01171875,10.25390625,8.30078125
1508291753138.2107,11.71875,31.25,60.05859375,15.13671875,31.25
1508291753142.117,22.4609375,30.76171875,56.640625,9.27734375,28.3203125
1508291753146.0232,43.45703125,34.1796875,56.15234375,11.71875,20.99609375
1508291753149.9294,45.41015625,33.69140625,58.10546875,26.3671875,45.41015625
1508291753153.8357,35.64453125,32.71484375,58.59375,25.87890625,44.43359375
1508291753157.742,25.390625,32.2265625,57.12890625,3.41796875,41.015625
1508291753161.6482,27.34375,32.2265625,62.98828125,4.39453125,31.25
1508291753165.5544,34.66796875,33.69140625,82.51953125,2.44140625,20.99609375
1508291753169.4607,24.4140625,33.203125,95.21484375,9.765625,26.85546875
1508291753173.367,16.11328125,34.66796875,85.44921875,15.13671875,39.0625
1508291753177.2732,25.390625,30.2734375,82.51953125,16.6015625,78.61328125
1508291753181.1794,38.0859375,26.3671875,78.125,18.5546875,41.9921875
1508291753183.3228,28.3203125,31.25,77.1484375,9.765625,48.828125
1508291753187.229,8.30078125,32.71484375,74.70703125,-12.6953125,51.26953125
1508291753191.1353,0.9765625,31.25,74.21875,-32.2265625,-0.48828125
1508291753195.0415,15.625,31.73828125,80.078125,-17.08984375,19.04296875
1508291753198.9478,23.4375,31.25,73.2421875,3.90625,41.50390625
1508291753202.854,12.20703125,28.80859375,60.05859375,8.7890625,41.9921875
1508291753206.7603,-1.46484375,30.2734375,54.19921875,-8.30078125,13.671875
1508291753210.6665,21.484375,34.66796875,73.2421875,-0.9765625,20.99609375
1508291753214.5728,28.80859375,33.203125,82.03125,27.83203125,34.1796875
1508291753218.479,8.7890625,30.76171875,67.87109375,28.3203125,20.01953125
1508291753222.3853,-7.8125,30.2734375,71.2890625,12.20703125,21.97265625
1508291753226.2915,3.41796875,30.2734375,76.171875,12.6953125,28.80859375
1508291753243.3677,26.85546875,31.73828125,77.63671875,33.69140625,61.03515625
1508291753247.274,16.11328125,30.2734375,76.66015625,30.2734375,45.41015625
1508291753251.1802,0.0,31.73828125,74.21875,7.32421875,2.44140625
1508291753255.0864,-0.48828125,34.1796875,78.61328125,10.25390625,-4.8828125
1508291753258.9927,15.13671875,32.71484375,78.125,35.15625,17.08984375
1508291753262.899,20.5078125,29.78515625,64.94140625,28.3203125,20.99609375
1508291753266.8052,10.25390625,23.4375,65.91796875,-1.46484375,-27.34375
1508291753270.7114,-0.48828125,27.83203125,78.125,-5.37109375,-26.85546875
1508291753274.6177,11.23046875,33.203125,75.1953125,13.18359375,21.484375
1508291753278.524,14.16015625,33.203125,67.87109375,30.2734375,5.859375
1508291753282.4302,-0.9765625,32.71484375,63.96484375,26.3671875,7.32421875
1508291753286.3364,-20.01953125,33.203125,52.734375,0.48828125,14.6484375
1508291753288.3977,-13.671875,36.1328125,45.41015625,4.39453125,22.4609375
1508291753292.304,-1.953125,38.0859375,47.8515625,21.97265625,69.3359375
1508291753296.2102,-8.7890625,36.62109375,41.9921875,8.30078125,60.546875
1508291753300.1165,-14.16015625,34.1796875,42.48046875,1.953125,23.92578125
1508291753304.0227,-4.39453125,34.1796875,44.921875,16.6015625,16.6015625
1508291753307.929,10.7421875,35.15625,34.1796875,23.4375,22.94921875
1508291753311.8352,11.23046875,38.57421875,28.80859375,14.16015625,28.3203125
1508291753315.7415,-5.859375,39.0625,31.25,-2.44140625,22.4609375
1508291753319.6477,-10.25390625,38.57421875,32.71484375,10.25390625,20.5078125
1508291753323.554,-1.46484375,39.55078125,33.69140625,17.08984375,17.578125
1508291753327.4602,6.8359375,41.50390625,48.33984375,11.71875,-12.6953125
1508291753331.3665,3.41796875,42.48046875,48.33984375,-0.9765625,-26.85546875
1508291753333.429,-7.32421875,38.57421875,43.45703125,-18.5546875,-30.2734375
1508291753337.3352,10.7421875,35.64453125,48.828125,1.46484375,-23.4375
1508291753341.2415,17.578125,39.55078125,49.31640625,2.44140625,-15.13671875
1508291753345.1477,5.37109375,41.9921875,47.36328125,-9.27734375,-8.30078125
1508291753349.054,-12.6953125,39.0625,36.62109375,-14.6484375,-12.20703125
1508291753352.9602,-12.6953125,33.69140625,26.3671875,-11.23046875,-12.6953125
1508291753356.8665,-0.48828125,34.1796875,24.90234375,-3.41796875,28.3203125
1508291753360.7727,0.9765625,36.62109375,25.87890625,-10.25390625,40.52734375
1508291753364.679,-5.859375,37.59765625,7.32421875,-25.390625,-38.57421875
1508291753368.5852,-2.9296875,38.0859375,-0.9765625,-18.5546875,-42.96875
1508291753372.4915,2.9296875,36.1328125,11.71875,14.16015625,22.4609375
1508291753376.3977,3.41796875,33.203125,4.8828125,26.85546875,33.203125
1508291753378.3323,1.46484375,34.1796875,-3.41796875,3.90625,19.04296875
1508291753382.2385,-5.37109375,32.71484375,0.48828125,-11.23046875,2.9296875
1508291753386.1448,1.953125,23.92578125,3.90625,-3.90625,13.18359375
1508291753390.051,8.7890625,24.4140625,2.44140625,0.9765625,-4.8828125
1508291753393.9573,-1.46484375,26.3671875,3.41796875,-16.11328125,-14.6484375
1508291753397.8635,-8.30078125,22.94921875,9.765625,-15.625,9.27734375
1508291753401.7698,0.0,22.4609375,18.06640625,8.30078125,36.62109375
1508291753405.676,4.39453125,22.4609375,15.13671875,6.8359375,7.32421875
1508291753409.5823,-10.7421875,23.4375,5.859375,-5.859375,-25.390625
1508291753413.4885,-18.5546875,27.83203125,11.71875,-5.859375,12.20703125
1508291753417.3948,-1.953125,29.296875,19.04296875,15.13671875,20.99609375
1508291753421.301,-1.953125,26.85546875,17.08984375,16.11328125,1.46484375
1508291753423.3667,3.41796875,29.296875,26.85546875,7.32421875,0.48828125
1508291753427.273,-15.625,31.25,41.015625,-8.30078125,-9.765625
1508291753431.1792,-11.71875,30.76171875,43.9453125,-8.7890625,-5.37109375
1508291753435.0854,15.625,30.76171875,41.9921875,2.44140625,0.0
1508291753438.9917,9.765625,34.1796875,44.921875,-1.46484375,-24.90234375
1508291753442.898,-4.8828125,33.203125,40.0390625,-17.578125,-10.7421875
1508291753446.8042,-5.37109375,31.25,40.0390625,-21.97265625,14.6484375
1508291753450.7104,0.48828125,30.2734375,34.1796875,-5.859375,-22.4609375
1508291753454.6167,1.46484375,27.83203125,31.73828125,-2.44140625,-26.3671875
1508291753458.523,-3.90625,32.71484375,41.9921875,-10.25390625,13.18359375
1508291753462.4292,-12.6953125,35.15625,32.2265625,-22.94921875,-52.734375
1508291753466.3354,-5.37109375,34.1796875,39.0625,-1.46484375,-39.0625
1508291753468.4119,3.41796875,39.55078125,51.26953125,2.9296875,25.390625
1508291753472.318,-1.46484375,34.1796875,46.875,-15.625,7.8125
1508291753476.2244,-19.53125,30.2734375,42.96875,-21.484375,24.4140625
1508291753480.1306,-11.71875,35.15625,49.8046875,-21.97265625,51.26953125
1508291753484.0369,9.27734375,34.66796875,54.6875,-11.23046875,30.2734375
1508291753487.943,7.8125,35.15625,48.828125,-8.30078125,6.8359375
1508291753491.8494,-10.25390625,37.59765625,46.38671875,-14.6484375,23.92578125
1508291753495.7556,-6.8359375,37.109375,35.64453125,-11.71875,-40.0390625
1508291753499.6619,9.765625,32.71484375,47.36328125,11.23046875,-68.84765625
1508291753503.568,2.44140625,29.296875,56.15234375,13.671875,11.71875
1508291753507.4744,-15.625,27.83203125,46.38671875,1.46484375,29.296875
1508291753511.3806,-16.11328125,26.85546875,47.36328125,0.0,19.04296875
1508291753512.9287,11.23046875,30.76171875,54.19921875,2.44140625,17.578125
1508291753516.835,10.7421875,33.203125,49.8046875,13.18359375,13.18359375
1508291753520.7412,-8.30078125,30.2734375,40.52734375,-14.6484375,25.87890625
1508291753524.6475,-10.25390625,28.80859375,49.8046875,-40.52734375,15.625
1508291753528.5537,-6.8359375,28.80859375,53.7109375,-22.94921875,-4.39453125
1508291753532.46,-0.48828125,28.3203125,48.828125,-17.08984375,11.71875
1508291753536.3662,-0.48828125,25.87890625,46.38671875,-29.296875,-10.25390625
1508291753540.2725,-9.27734375,23.4375,49.8046875,-35.15625,-15.625
1508291753544.1787,7.8125,29.296875,61.5234375,-11.71875,6.8359375
1508291753548.085,19.53125,32.2265625,62.98828125,6.8359375,-23.4375
1508291753551.9912,12.20703125,31.73828125,52.734375,-5.859375,-42.48046875
1508291753555.8975,0.48828125,32.71484375,43.9453125,-17.578125,-26.85546875
1508291753557.9602,-4.39453125,31.73828125,46.38671875,-13.671875,11.23046875
1508291753561.8665,3.41796875,28.80859375,43.9453125,-2.9296875,-2.9296875
1508291753565.7727,-2.44140625,26.85546875,44.43359375,-1.46484375,-26.3671875
1508291753569.679,-10.7421875,24.4140625,54.19921875,-12.6953125,-1.46484375
1508291753573.5852,-13.18359375,25.87890625,55.17578125,-21.484375,1.46484375
1508291753577.4915,-3.90625,28.80859375,55.17578125,-14.6484375,-30.2734375
1508291753581.3977,-2.9296875,28.80859375,45.41015625,-17.578125,-6.34765625
1508291753585.304,-14.16015625,27.83203125,46.875,-32.2265625,41.9921875
1508291753589.2102,-26.3671875,26.3671875,52.734375,-33.203125,49.8046875
1508291753593.1165,-17.08984375,23.92578125,46.875,-22.94921875,40.0390625
1508291753597.0227,-5.859375,25.87890625,46.875,-17.08984375,16.6015625
1508291753600.929,-1.953125,30.2734375,46.875,-10.7421875,15.625
1508291753618.0034,-13.18359375,31.73828125,32.71484375,-30.2734375,20.01953125
1508291753621.9097,-9.27734375,32.2265625,23.4375,-36.62109375,-1.46484375
1508291753625.816,12.20703125,34.1796875,34.66796875,-15.13671875,11.23046875
1508291753629.7222,9.27734375,32.71484375,47.36328125,-18.5546875,11.71875
1508291753633.6284,-7.8125,27.34375,46.875,-37.109375,9.27734375
1508291753637.5347,-12.6953125,25.390625,37.109375,-51.7578125,-14.6484375
1508291753641.441,-1.953125,25.87890625,47.36328125,-45.8984375,17.08984375
1508291753645.3472,6.8359375,23.4375,57.12890625,-33.69140625,29.78515625
1508291753649.2534,2.44140625,26.85546875,54.19921875,-44.43359375,-8.7890625
1508291753653.1597,-4.8828125,33.203125,46.875,-46.875,18.06640625
1508291753657.066,20.5078125,36.62109375,45.41015625,-27.34375,38.0859375
1508291753660.9722,30.2734375,38.0859375,50.78125,-11.71875,33.69140625
1508291753663.0464,7.32421875,33.203125,50.29296875,-12.20703125,14.6484375
1508291753666.9526,-11.23046875,30.2734375,48.828125,-12.6953125,0.48828125
1508291753670.859,-2.44140625,31.73828125,52.734375,7.8125,12.20703125
1508291753674.7651,9.27734375,30.76171875,52.734375,11.23046875,-10.7421875
1508291753678.6714,-1.953125,29.296875,41.50390625,0.0,-14.16015625
1508291753682.5776,-8.7890625,27.34375,33.69140625,-4.8828125,1.953125
1508291753686.484,0.0,32.2265625,36.62109375,-2.44140625,-7.8125
1508291753690.3901,10.7421875,33.69140625,44.43359375,15.13671875,20.5078125
1508291753694.2964,6.8359375,28.80859375,44.921875,10.7421875,9.27734375
1508291753698.2026,-5.859375,29.296875,31.73828125,-17.578125,-36.62109375
1508291753702.109,-1.953125,28.80859375,45.41015625,-5.859375,-3.41796875
1508291753706.0151,11.23046875,29.296875,60.05859375,26.3671875,19.04296875
1508291753708.0654,17.578125,34.1796875,49.31640625,26.3671875,-4.8828125
1508291753711.9717,5.859375,36.62109375,44.921875,10.7421875,6.34765625
1508291753715.878,-4.8828125,33.203125,48.33984375,4.39453125,31.25
1508291753719.7842,8.30078125,34.1796875,51.7578125,20.01953125,23.92578125
1508291753723.6904,14.6484375,36.1328125,55.6640625,15.625,3.90625
1508291753727.5967,5.859375,34.66796875,57.12890625,-4.8828125,-13.671875
1508291753731.503,-5.859375,35.15625,62.01171875,3.41796875,-26.3671875
1508291753735.4092,1.953125,35.64453125,65.91796875,22.94921875,-40.52734375
1508291753739.3154,13.18359375,33.69140625,50.29296875,26.3671875,-30.76171875
1508291753743.2217,11.23046875,31.73828125,53.22265625,17.578125,-19.53125
1508291753747.128,3.41796875,33.203125,69.3359375,8.7890625,-17.578125
1508291753751.0342,-0.9765625,31.73828125,69.82421875,7.32421875,13.671875
1508291753754.5994,3.41796875,31.25,74.70703125,12.6953125,2.9296875
1508291753758.5056,6.34765625,34.66796875,96.6796875,9.27734375,-6.34765625
1508291753762.4119,-6.8359375,37.109375,106.4453125,-2.9296875,14.16015625
1508291753766.318,-9.765625,36.62109375,94.23828125,-3.41796875,-29.78515625
1508291753770.2244,3.90625,33.69140625,94.23828125,9.765625,-24.4140625
1508291753774.1306,5.37109375,34.66796875,86.9140625,14.16015625,-23.4375
1508291753778.0369,-0.48828125,33.203125,72.75390625,8.7890625,-43.45703125
1508291753781.943,-12.6953125,30.2734375,64.453125,3.90625,-2.9296875
1508291753785.8494,-2.44140625,32.71484375,61.5234375,14.6484375,4.39453125
1508291753789.7556,15.13671875,32.71484375,70.3125,26.3671875,-17.578125
1508291753793.6619,8.7890625,33.69140625,69.82421875,28.80859375,-15.13671875
1508291753797.568,-5.859375,30.76171875,56.640625,11.71875,-32.2265625
1508291753798.1292,3.90625,27.34375,57.12890625,15.625,-8.7890625
1508291753802.0354,17.578125,26.3671875,57.12890625,24.90234375,-5.859375
1508291753805.9417,7.8125,24.4140625,41.50390625,17.578125,-8.30078125
1508291753809.848,-13.18359375,22.4609375,30.76171875,9.765625,21.97265625
1508291753813.7542,-13.18359375,22.4609375,36.1328125,17.08984375,16.11328125
1508291753817.6604,1.953125,19.53125,38.57421875,35.64453125,17.08984375
1508291753821.5667,-0.9765625,20.5078125,37.59765625,27.83203125,27.83203125
1508291753825.473,-11.23046875,28.3203125,33.203125,10.25390625,-11.23046875
1508291753829.3792,-5.859375,28.3203125,32.71484375,16.11328125,-13.18359375
1508291753833.2854,9.27734375,30.2734375,41.015625,41.015625,-0.48828125
1508291753837.1917,8.7890625,30.76171875,37.59765625,44.43359375,15.13671875
1508291753841.098,-5.37109375,32.71484375,22.94921875,26.85546875,32.2265625
1508291753843.1636,-15.625,35.64453125,24.90234375,14.6484375,12.20703125
1508291753847.0698,-5.37109375,24.4140625,32.2265625,31.73828125,1.46484375
1508291753850.976,5.859375,23.92578125,30.2734375,37.59765625,11.71875
1508291753854.8823,1.953125,31.25,23.92578125,25.87890625,48.33984375
1508291753858.7886,-19.53125,33.69140625,15.13671875,20.01953125,53.22265625
1508291753862.6948,-18.5546875,34.1796875,12.6953125,23.92578125,29.296875
1508291753866.601,3.41796875,29.78515625,9.27734375,27.83203125,32.71484375
1508291753870.5073,1.46484375,29.78515625,2.44140625,11.23046875,-6.34765625
1508291753874.4136,-17.08984375,26.3671875,15.13671875,-2.9296875,34.66796875
1508291753878.3198,-15.625,12.6953125,20.99609375,14.16015625,67.3828125
1508291753882.226,-1.953125,10.25390625,9.27734375,23.4375,-10.25390625
1508291753886.1323,2.44140625,20.99609375,8.30078125,16.11328125,-23.92578125
1508291753888.197,-2.44140625,29.78515625,10.25390625,16.11328125,31.25
1508291753892.1033,-10.25390625,35.15625,12.20703125,12.6953125,-0.9765625
1508291753896.0095,4.8828125,39.0625,16.11328125,21.484375,-24.4140625
1508291753899.9158,2.9296875,38.57421875,14.16015625,21.97265625,30.76171875
1508291753903.822,-18.5546875,39.0625,12.6953125,7.32421875,8.30078125
1508291753907.7283,-16.6015625,37.109375,11.23046875,2.9296875,2.44140625
1508291753911.6345,-1.46484375,35.15625,10.25390625,13.671875,14.6484375
1508291753915.5408,-3.41796875,33.69140625,15.625,19.53125,5.859375
1508291753919.447,-3.41796875,38.0859375,16.6015625,21.97265625,5.859375
1508291753923.3533,-11.71875,41.50390625,10.25390625,20.01953125,14.6484375
1508291753927.2595,-8.30078125,39.55078125,13.18359375,21.484375,41.9921875
1508291753931.1658,7.8125,37.59765625,9.27734375,34.1796875,16.11328125
1508291753933.2246,1.953125,31.73828125,12.20703125,30.76171875,0.48828125
1508291753937.1309,-18.5546875,28.80859375,15.625,11.23046875,0.0
1508291753941.037,-20.01953125,35.15625,19.04296875,8.7890625,-9.27734375
1508291753944.9434,-1.46484375,34.66796875,29.78515625,27.83203125,-18.06640625
1508291753948.8496,1.953125,15.625,30.76171875,32.71484375,3.90625
1508291753952.7559,-2.9296875,12.6953125,28.80859375,24.4140625,9.765625
1508291753956.662,-9.27734375,27.34375,37.109375,19.53125,-12.20703125
1508291753960.5684,2.44140625,32.2265625,58.59375,25.390625,3.41796875
1508291753964.4746,11.23046875,30.76171875,69.3359375,40.52734375,14.16015625
1508291753968.3809,0.48828125,24.4140625,62.5,29.78515625,3.90625
1508291753972.287,-18.5546875,23.92578125,54.19921875,9.765625,7.32421875
1508291753976.1934,-7.8125,22.94921875,57.12890625,18.5546875,24.90234375
1508291753993.2878,4.39453125,23.92578125,60.05859375,30.2734375,39.0625
1508291753997.194,-0.9765625,30.2734375,52.24609375,19.53125,21.484375
1508291754001.1003,-12.20703125,36.1328125,46.38671875,11.71875,9.765625
1508291754005.0066,-12.6953125,37.59765625,42.48046875,24.4140625,37.109375
1508291754008.9128,5.37109375,37.109375,33.203125,32.71484375,-5.37109375
1508291754012.819,2.44140625,36.1328125,20.99609375,20.5078125,-36.62109375
1508291754016.7253,-15.625,30.2734375,16.11328125,7.32421875,-21.97265625
1508291754020.6316,-11.23046875,26.3671875,19.53125,13.18359375,-4.39453125
1508291754024.5378,10.7421875,30.2734375,14.16015625,24.4140625,-15.13671875
1508291754028.444,15.13671875,37.59765625,5.859375,20.99609375,-42.96875
1508291754032.3503,6.8359375,38.0859375,6.8359375,17.578125,-29.78515625
1508291754036.2566,5.37109375,36.62109375,5.37109375,12.6953125,-18.5546875
1508291754038.3271,16.6015625,33.69140625,4.8828125,26.85546875,-9.27734375
1508291754042.2334,20.01953125,34.66796875,10.25390625,34.1796875,-26.85546875
1508291754046.1396,18.5546875,36.1328125,7.32421875,35.64453125,-30.76171875
1508291754050.046,7.8125,33.69140625,12.20703125,50.29296875,9.27734375
1508291754053.9521,-6.8359375,34.66796875,20.5078125,44.921875,-21.484375
1508291754057.8584,-8.30078125,33.203125,20.01953125,40.0390625,-35.64453125
1508291754061.7646,-7.8125,31.25,24.4140625,35.15625,14.6484375
1508291754065.671,-19.53125,30.76171875,23.92578125,22.94921875,4.8828125
1508291754069.5771,-14.6484375,29.296875,20.01953125,27.34375,-12.20703125
1508291754073.4834,2.44140625,28.80859375,20.99609375,26.85546875,10.7421875
1508291754077.3896,2.44140625,29.296875,30.76171875,27.34375,0.9765625
1508291754081.296,-9.27734375,29.296875,37.59765625,20.99609375,-41.50390625
1508291754083.3513,-9.27734375,30.76171875,32.71484375,11.71875,-55.6640625
1508291754087.2576,3.41796875,33.69140625,32.2265625,32.2265625,-32.71484375
1508291754091.1638,11.71875,32.2265625,37.109375,44.43359375,-26.85546875
1508291754095.07,6.34765625,32.2265625,31.73828125,29.296875,-73.2421875
1508291754098.9763,-1.953125,39.55078125,26.3671875,18.06640625,-32.2265625
1508291754102.8826,6.8359375,35.64453125,33.69140625,27.83203125,14.6484375
1508291754106.7888,11.23046875,23.4375,51.26953125,30.2734375,4.39453125
1508291754110.695,4.8828125,23.4375,56.15234375,24.4140625,7.8125
1508291754114.6013,-12.6953125,25.87890625,42.96875,19.04296875,-14.16015625
1508291754118.5076,-0.9765625,27.34375,43.9453125,14.16015625,-5.859375
1508291754122.4138,15.13671875,29.296875,53.7109375,33.203125,-8.7890625
1508291754126.32,0.48828125,31.25,47.8515625,50.78125,-25.87890625
1508291754128.3835,-12.20703125,38.57421875,34.1796875,38.57421875,-16.6015625
1508291754132.2898,-7.8125,39.0625,27.34375,34.66796875,4.39453125
1508291754136.196,3.41796875,35.64453125,32.2265625,43.9453125,1.953125
1508291754140.1023,6.8359375,32.71484375,36.62109375,43.9453125,-2.9296875
1508291754144.0085,-2.9296875,34.66796875,29.78515625,34.1796875,40.52734375
1508291754147.9148,-7.32421875,32.2265625,20.99609375,23.4375,17.578125
1508291754151.821,7.8125,29.296875,21.484375,35.15625,7.32421875
1508291754155.7273,8.30078125,34.66796875,17.08984375,39.55078125,9.27734375
1508291754159.6335,-5.37109375,38.57421875,8.7890625,22.4609375,6.34765625
1508291754163.5398,-10.7421875,35.64453125,29.296875,22.4609375,47.36328125
1508291754167.446,5.37109375,35.15625,51.26953125,36.1328125,36.1328125
1508291754171.3523,14.16015625,33.69140625,51.26953125,40.52734375,2.9296875
1508291754173.4153,10.7421875,34.1796875,62.01171875,35.15625,0.9765625
1508291754177.3215,0.0,42.96875,62.98828125,20.01953125,-0.9765625
1508291754181.2278,2.44140625,41.9921875,48.828125,34.66796875,-6.8359375
1508291754185.134,21.484375,40.52734375,43.9453125,45.8984375,-17.578125
1508291754189.0403,10.7421875,37.59765625,44.43359375,38.0859375,0.48828125
1508291754192.9465,-8.30078125,32.2265625,35.64453125,23.92578125,4.39453125
1508291754196.8528,7.32421875,34.1796875,31.25,22.94921875,-12.20703125
1508291754200.759,24.4140625,32.2265625,22.4609375,31.25,-40.0390625
1508291754204.6653,18.06640625,31.73828125,22.4609375,21.97265625,-53.22265625
1508291754208.5715,6.8359375,35.64453125,28.3203125,26.3671875,-26.85546875
1508291754212.4778,-3.41796875,37.109375,10.7421875,28.80859375,-5.37109375
1508291754216.384,12.6953125,37.109375,5.37109375,34.66796875,0.9765625
1508291754218.1292,23.92578125,36.62109375,6.8359375,41.50390625,28.80859375
1508291754222.0354,18.06640625,39.0625,4.39453125,40.0390625,18.5546875
1508291754225.9417,5.37109375,37.109375,3.41796875,36.62109375,-33.203125
1508291754229.848,12.20703125,35.64453125,7.8125,46.38671875,-22.94921875
1508291754233.7542,26.85546875,38.57421875,15.625,51.7578125,16.6015625
1508291754237.6604,17.578125,38.0859375,16.11328125,44.921875,37.59765625
1508291754241.5667,4.39453125,34.66796875,11.71875,30.2734375,45.41015625
1508291754245.473,4.8828125,34.66796875,6.34765625,21.484375,-33.69140625
1508291754249.3792,19.04296875,40.0390625,21.97265625,28.80859375,-31.25
1508291754253.2854,21.484375,38.57421875,28.3203125,36.62109375,17.578125
1508291754257.1917,0.48828125,34.1796875,15.13671875,30.2734375,-3.41796875
1508291754261.098,0.48828125,30.2734375,18.06640625,25.87890625,10.7421875
1508291754263.1682,13.18359375,28.80859375,27.83203125,43.45703125,25.87890625
1508291754267.0745,5.859375,31.73828125,20.5078125,49.31640625,-0.48828125
1508291754270.9807,-3.41796875,36.1328125,10.25390625,41.50390625,12.6953125
1508291754274.887,-4.8828125,37.59765625,12.20703125,44.921875,39.55078125
1508291754278.7932,8.30078125,37.109375,11.71875,63.4765625,34.1796875
1508291754282.6995,12.20703125,32.71484375,13.18359375,82.03125,32.2265625
1508291754286.6057,13.18359375,33.69140625,8.30078125,103.02734375,10.7421875
1508291754290.512,8.30078125,34.1796875,13.18359375,116.2109375,-10.7421875
1508291754294.4182,6.8359375,30.76171875,33.203125,143.06640625,13.671875
1508291754298.3245,14.6484375,27.34375,28.80859375,171.875,41.50390625
1508291754302.2307,5.859375,24.90234375,16.6015625,164.0625,18.06640625
1508291754306.137,-8.30078125,29.296875,12.20703125,150.87890625,-30.76171875
1508291754308.193,0.48828125,31.73828125,16.6015625,160.15625,-13.18359375
1508291754312.0994,11.71875,31.73828125,20.01953125,178.7109375,-16.11328125
1508291754316.0056,5.37109375,26.3671875,20.99609375,177.24609375,3.90625
1508291754319.9119,-9.765625,24.90234375,22.94921875,165.0390625,32.2265625
1508291754323.818,-17.578125,27.34375,12.6953125,166.50390625,7.32421875
1508291754327.7244,5.37109375,30.2734375,10.7421875,180.6640625,22.4609375
1508291754331.6306,29.78515625,36.62109375,9.27734375,183.59375,-6.34765625
1508291754335.5369,25.390625,37.109375,17.578125,172.8515625,-14.16015625
1508291754339.443,1.46484375,35.15625,22.4609375,171.38671875,31.25
1508291754343.3494,-15.13671875,32.71484375,10.7421875,171.875,29.78515625
1508291754347.2556,-0.48828125,28.80859375,14.16015625,181.640625,23.4375
1508291754351.1619,-7.32421875,22.4609375,18.5546875,175.78125,-17.578125
1508291754368.2363,-32.71484375,18.5546875,17.08984375,154.296875,-39.55078125
1508291754372.1426,-19.53125,17.578125,16.11328125,160.15625,-25.390625
1508291754376.0488,-5.859375,19.53125,14.16015625,166.015625,-12.6953125
1508291754379.955,-7.8125,23.4375,16.11328125,167.48046875,20.01953125
1508291754383.8613,-19.53125,23.92578125,17.578125,146.484375,43.9453125
1508291754387.7676,-13.671875,23.92578125,7.32421875,105.95703125,7.32421875
1508291754391.6738,-0.9765625,23.92578125,9.27734375,79.58984375,-9.27734375
1508291754395.58,-2.44140625,20.99609375,18.5546875,44.921875,23.92578125
1508291754399.4863,-11.71875,14.6484375,13.18359375,0.48828125,22.4609375
1508291754403.3926,-21.484375,15.625,16.6015625,-27.34375,13.671875
1508291754407.2988,-3.90625,21.484375,28.80859375,-15.625,13.671875
1508291754411.205,7.32421875,24.4140625,32.2265625,-5.859375,7.32421875
1508291754413.289,0.48828125,27.34375,26.3671875,-23.92578125,1.953125
1508291754417.1953,-5.859375,28.3203125,18.5546875,-43.45703125,2.44140625
1508291754421.1016,4.39453125,34.1796875,20.99609375,-37.59765625,20.01953125
1508291754425.0078,19.53125,37.59765625,18.06640625,-24.90234375,18.06640625
1508291754428.914,13.671875,30.76171875,12.20703125,-34.66796875,5.37109375
1508291754432.8203,1.46484375,26.85546875,12.6953125,-52.734375,-4.39453125
1508291754436.7266,5.859375,26.85546875,25.87890625,-39.55078125,24.4140625
1508291754440.6328,14.6484375,26.85546875,41.015625,-25.390625,51.26953125
1508291754444.539,14.16015625,27.34375,37.109375,-21.97265625,68.359375
1508291754448.4453,7.8125,31.25,18.06640625,-40.52734375,20.5078125
1508291754452.3516,12.20703125,33.69140625,20.5078125,-42.48046875,12.6953125
1508291754456.2578,30.2734375,32.2265625,29.78515625,-15.625,41.9921875
1508291754458.2998,30.2734375,33.69140625,26.3671875,-28.3203125,39.0625
1508291754462.206,6.8359375,34.66796875,26.85546875,-46.875,70.3125
1508291754466.1123,-3.41796875,30.2734375,31.25,-53.22265625,17.08984375
1508291754470.0186,7.8125,29.296875,38.0859375,-38.0859375,50.78125
1508291754473.9248,21.484375,34.1796875,37.59765625,-30.2734375,93.75
1508291754477.831,19.53125,33.69140625,31.73828125,-39.0625,77.63671875
1508291754481.7373,4.39453125,33.69140625,37.109375,-45.8984375,80.078125
1508291754485.6436,13.671875,33.203125,55.17578125,-30.2734375,70.3125
1508291754489.5498,24.4140625,28.3203125,59.5703125,-22.4609375,40.0390625
1508291754493.456,19.04296875,28.80859375,56.640625,-41.50390625,33.69140625
1508291754497.3623,7.8125,35.64453125,62.98828125,-53.22265625,44.43359375
1508291754501.2686,3.90625,36.62109375,60.05859375,-49.8046875,46.38671875
1508291754503.3525,17.578125,37.109375,56.15234375,-42.48046875,31.25
1508291754507.2588,19.04296875,38.0859375,55.6640625,-39.0625,7.8125
1508291754511.165,5.37109375,37.109375,54.6875,-39.55078125,32.2265625
1508291754515.0713,5.37109375,37.109375,48.828125,-40.0390625,22.94921875
1508291754518.9775,20.99609375,32.71484375,54.19921875,-25.390625,0.9765625
1508291754522.8838,26.85546875,26.85546875,57.6171875,-18.06640625,1.953125
1508291754526.79,7.8125,33.69140625,56.15234375,-33.203125,12.20703125
1508291754530.6963,0.48828125,37.59765625,55.17578125,-42.96875,20.5078125
1508291754534.6025,18.06640625,34.66796875,57.6171875,-31.25,-12.6953125
1508291754538.5088,15.13671875,34.66796875,84.47265625,-25.390625,9.27734375
1508291754542.415,3.41796875,36.62109375,97.65625,-31.73828125,-2.9296875
1508291754546.3213,-5.37109375,37.109375,88.37890625,-39.0625,-37.59765625
1508291754548.3372,-0.48828125,33.69140625,93.75,-31.73828125,-0.9765625
1508291754552.2434,10.7421875,30.76171875,104.4921875,-19.53125,26.3671875
1508291754556.1497,10.7421875,30.2734375,97.65625,-27.83203125,23.4375
1508291754560.056,-10.25390625,27.83203125,80.078125,-40.52734375,-17.08984375
1508291754563.9622,-8.30078125,27.34375,84.47265625,-31.73828125,4.8828125
1508291754567.8684,7.8125,27.83203125,88.37890625,-23.4375,39.0625
1508291754571.7747,8.30078125,27.34375,79.58984375,-23.4375,19.04296875
1508291754575.681,2.44140625,28.3203125,69.82421875,-31.73828125,5.859375
1508291754579.5872,-8.30078125,23.4375,68.84765625,-42.48046875,21.97265625
1508291754583.4934,4.8828125,21.97265625,82.51953125,-12.20703125,28.3203125
1508291754587.3997,9.27734375,25.87890625,82.03125,-2.9296875,36.62109375
1508291754591.306,-6.34765625,27.83203125,62.98828125,-23.4375,52.24609375
1508291754593.3694,-13.18359375,30.2734375,38.57421875,-23.92578125,8.7890625
1508291754597.2756,2.44140625,28.3203125,31.25,-6.34765625,-18.06640625
1508291754601.182,12.6953125,29.296875,26.85546875,5.859375,17.08984375
1508291754605.0881,7.8125,29.78515625,24.4140625,-1.953125,24.4140625
1508291754608.9944,-5.37109375,24.90234375,26.85546875,-10.25390625,36.1328125
1508291754612.9006,-4.8828125,28.3203125,24.4140625,-5.37109375,42.96875
1508291754616.807,4.39453125,28.80859375,28.3203125,-0.9765625,3.41796875
1508291754620.7131,-1.46484375,23.4375,23.4375,-11.23046875,-41.015625
1508291754624.6194,-18.5546875,24.90234375,28.3203125,-20.01953125,-33.69140625
1508291754628.5256,-10.7421875,27.83203125,39.55078125,2.9296875,-12.6953125
1508291754632.432,11.23046875,27.34375,35.64453125,16.6015625,-25.390625
1508291754636.3381,6.8359375,23.92578125,34.1796875,16.6015625,-14.16015625
1508291754638.3994,-5.37109375,23.4375,45.41015625,7.32421875,19.53125
1508291754642.3057,-12.20703125,22.94921875,50.29296875,1.953125,22.94921875
1508291754646.212,4.39453125,25.390625,50.78125,15.13671875,10.7421875
1508291754650.1182,14.16015625,31.73828125,55.17578125,23.92578125,20.99609375
1508291754654.0244,5.37109375,34.66796875,47.36328125,19.04296875,-3.90625
1508291754657.9307,0.48828125,34.66796875,31.73828125,7.8125,-30.2734375
1508291754661.837,6.34765625,27.83203125,22.4609375,17.08984375,-16.6015625
1508291754665.7432,7.32421875,24.90234375,30.2734375,25.87890625,3.41796875
1508291754669.6494,0.0,29.296875,36.62109375,25.390625,34.1796875
1508291754673.5557,-22.4609375,31.25,24.4140625,18.06640625,18.5546875
1508291754677.462,-22.94921875,30.2734375,10.7421875,10.25390625,0.48828125
1508291754681.3682,1.46484375,34.66796875,13.18359375,18.5546875,17.08984375
1508291754682.9307,2.9296875,33.203125,18.06640625,28.3203125,12.20703125
1508291754686.837,-5.859375,30.2734375,3.90625,16.6015625,-11.23046875
1508291754690.7432,-4.8828125,34.66796875,-0.48828125,10.7421875,-14.16015625
1508291754694.6494,6.34765625,35.64453125,9.27734375,15.13671875,3.41796875
1508291754698.5557,15.625,35.15625,15.13671875,21.484375,21.97265625
1508291754702.462,6.8359375,36.1328125,13.671875,17.08984375,-24.4140625
1508291754706.3682,-9.765625,36.62109375,13.18359375,5.859375,-66.89453125
1508291754710.2744,-2.44140625,32.71484375,22.4609375,0.48828125,-32.2265625
1508291754714.1807,2.9296875,27.83203125,26.3671875,13.671875,-29.78515625
1508291754718.087,-1.953125,26.3671875,17.578125,15.625,-14.16015625
1508291754721.9932,-6.8359375,25.87890625,8.7890625,0.0,-0.48828125
1508291754725.8994,-3.90625,22.94921875,11.23046875,9.765625,10.7421875
1508291754742.9727,4.8828125,19.04296875,10.25390625,18.06640625,-1.46484375
1508291754746.879,2.44140625,21.484375,10.25390625,8.30078125,-1.46484375
1508291754750.7852,-11.71875,20.99609375,6.34765625,-2.44140625,13.18359375
1508291754754.6914,-7.32421875,20.01953125,1.953125,16.11328125,19.53125
1508291754758.5977,17.08984375,21.97265625,-1.953125,33.203125,57.12890625
1508291754762.504,13.18359375,23.4375,-16.6015625,17.578125,16.11328125
1508291754766.4102,-1.46484375,24.4140625,-17.08984375,10.7421875,-30.2734375
1508291754770.3164,6.8359375,22.94921875,-2.44140625,18.5546875,-23.4375
1508291754774.2227,15.625,20.99609375,3.90625,35.64453125,-11.71875
1508291754778.129,11.23046875,19.53125,0.9765625,37.59765625,-34.66796875
1508291754782.0352,-1.46484375,20.99609375,0.0,31.73828125,-23.92578125
1508291754785.9414,-5.37109375,24.90234375,5.37109375,36.62109375,13.671875
1508291754789.0063,8.30078125,25.87890625,3.90625,41.015625,-4.39453125
1508291754792.9126,17.578125,21.484375,-0.9765625,40.0390625,-7.8125
1508291754796.8188,12.6953125,20.5078125,-4.39453125,32.2265625,34.1796875
1508291754800.725,0.9765625,25.390625,-10.7421875,21.97265625,13.18359375
1508291754804.6313,2.9296875,27.83203125,-10.7421875,32.2265625,-2.44140625
1508291754808.5376,4.39453125,24.90234375,-12.20703125,32.71484375,20.99609375
1508291754812.4438,2.44140625,20.5078125,-15.625,17.08984375,-1.953125
1508291754816.35,-6.34765625,20.5078125,-11.23046875,11.71875,0.9765625
1508291754820.2563,-9.765625,22.94921875,-18.5546875,18.06640625,-16.11328125
1508291754824.1626,8.30078125,25.390625,-25.87890625,29.78515625,-22.4609375
1508291754828.0688,12.20703125,25.87890625,-19.04296875,29.78515625,5.859375
1508291754831.975,0.48828125,22.94921875,-17.578125,21.484375,33.203125
1508291754833.5396,-2.9296875,21.97265625,-15.13671875,16.11328125,12.6953125
1508291754837.4458,11.71875,22.4609375,-2.9296875,21.484375,9.27734375
1508291754841.352,24.4140625,24.90234375,4.8828125,27.83203125,23.4375
1508291754845.2583,5.859375,24.4140625,-0.9765625,20.5078125,-6.34765625
1508291754849.1646,-10.7421875,24.4140625,-5.37109375,16.11328125,-38.0859375
1508291754853.0708,8.30078125,25.390625,-2.44140625,32.71484375,9.765625
1508291754856.977,16.11328125,25.87890625,-5.859375,41.9921875,11.71875
1508291754860.8833,6.8359375,29.296875,-7.8125,38.57421875,-11.71875
1508291754864.7896,-8.7890625,30.76171875,-13.671875,22.4609375,-19.04296875
1508291754868.6958,-11.23046875,30.76171875,-14.6484375,19.04296875,-42.96875
1508291754872.602,-1.953125,28.3203125,4.8828125,38.0859375,-2.44140625
1508291754876.5083,-0.9765625,26.85546875,2.44140625,49.8046875,14.16015625
1508291754878.0715,-14.6484375,31.73828125,-9.27734375,30.2734375,-32.71484375
1508291754881.9778,-17.578125,36.62109375,-8.7890625,22.94921875,-9.27734375
1508291754885.884,0.0,36.62109375,-5.859375,47.8515625,45.41015625
1508291754889.7903,7.32421875,34.1796875,-9.765625,53.22265625,52.24609375
1508291754893.6965,-11.23046875,34.66796875,-19.53125,42.96875,20.5078125
1508291754897.6028,-20.99609375,32.2265625,-21.484375,44.921875,15.625
1508291754901.509,-2.9296875,29.296875,-13.18359375,64.94140625,39.55078125
1508291754905.4153,3.41796875,27.34375,-3.41796875,67.87109375,35.64453125
1508291754909.3215,-8.7890625,24.90234375,-6.8359375,49.8046875,26.3671875
1508291754913.2278,-14.16015625,28.3203125,-1.46484375,50.78125,7.32421875
1508291754917.134,0.9765625,28.80859375,1.953125,79.58984375,18.06640625
1508291754921.0403,3.41796875,25.390625,-4.8828125,91.796875,0.9765625
1508291754923.1035,0.48828125,27.34375,-3.41796875,89.35546875,14.16015625
1508291754927.0098,-11.71875,28.3203125,-6.34765625,97.65625,32.71484375
1508291754930.916,-15.13671875,25.390625,-1.953125,117.67578125,12.20703125
1508291754934.8223,1.46484375,25.87890625,3.41796875,132.32421875,21.97265625
1508291754938.7285,3.41796875,23.4375,1.46484375,134.27734375,6.34765625
1508291754942.6348,-7.32421875,24.90234375,-5.37109375,129.8828125,-0.48828125
1508291754946.541,-2.44140625,26.85546875,-9.765625,134.27734375,14.16015625
1508291754950.4473,12.6953125,27.34375,-15.13671875,148.92578125,-14.6484375
1508291754954.3535,16.6015625,29.78515625,-20.99609375,146.484375,-34.1796875
1508291754958.2598,5.859375,29.78515625,-12.20703125,145.01953125,-19.04296875
1508291754962.166,-3.41796875,29.296875,-13.671875,134.765625,-33.69140625
1508291754966.0723,10.25390625,25.87890625,-13.671875,141.6015625,-28.3203125
1508291754968.1348,18.06640625,23.4375,-9.27734375,150.390625,-18.5546875
1508291754972.041,3.90625,24.90234375,-5.859375,148.92578125,-29.296875
1508291754975.9473,0.0,24.4140625,-4.8828125,152.34375,-56.640625
1508291754979.8535,31.25,33.69140625,-6.34765625,174.31640625,-38.0859375
1508291754983.7598,31.73828125,44.921875,-8.30078125,165.52734375,-20.99609375
1508291754987.666,10.7421875,45.41015625,-13.671875,128.90625,1.953125
1508291754991.5723,-7.32421875,41.015625,-22.4609375,112.3046875,17.578125
1508291754995.4785,-17.08984375,39.0625,-31.25,102.5390625,-4.8828125
1508291754999.3848,11.23046875,43.45703125,-18.06640625,114.2578125,34.1796875
1508291755003.291,16.11328125,48.828125,-18.5546875,115.72265625,50.29296875
1508291755007.1973,-2.44140625,46.875,-32.71484375,100.5859375,22.4609375
1508291755011.1035,5.37109375,47.36328125,-30.76171875,107.91015625,8.30078125
1508291755013.6707,20.5078125,47.36328125,-25.87890625,121.09375,13.18359375
1508291755017.577,26.3671875,44.921875,-31.73828125,126.953125,29.296875
1508291755021.4832,15.625,49.31640625,-41.015625,126.46484375,-8.7890625
1508291755025.3894,6.34765625,51.7578125,-34.1796875,123.046875,-25.87890625
1508291755029.2957,20.99609375,48.828125,-26.85546875,138.18359375,-14.16015625
1508291755033.202,32.2265625,45.8984375,-23.4375,152.34375,-0.48828125
1508291755037.1082,23.92578125,41.015625,-27.83203125,139.6484375,-15.625
1508291755041.0144,10.25390625,37.59765625,-31.25,125.48828125,-72.265625
1508291755044.9207,25.87890625,37.109375,-7.32421875,150.87890625,-33.69140625
1508291755048.827,39.55078125,38.0859375,3.90625,163.0859375,-27.34375
1508291755052.7332,33.203125,41.50390625,2.9296875,149.90234375,-37.109375
1508291755056.6394,24.90234375,43.9453125,1.46484375,131.34765625,10.25390625
1508291755058.2002,19.04296875,41.9921875,0.48828125,122.55859375,4.39453125
1508291755062.1064,30.76171875,40.52734375,-3.41796875,136.23046875,-38.57421875
1508291755066.0127,33.69140625,38.0859375,-8.30078125,132.32421875,-38.0859375
1508291755069.919,14.16015625,36.1328125,-11.71875,117.67578125,-29.296875
1508291755073.8252,4.8828125,35.64453125,-12.6953125,117.1875,-26.3671875
1508291755077.7314,21.484375,30.76171875,-12.20703125,131.34765625,20.99609375
1508291755081.6377,21.97265625,27.34375,-22.4609375,118.1640625,-9.27734375
1508291755085.544,17.578125,31.73828125,-14.16015625,101.07421875,-19.53125
1508291755089.4502,17.08984375,36.62109375,-5.859375,106.93359375,11.23046875
1508291755093.3564,18.5546875,36.1328125,-10.7421875,113.76953125,-2.44140625
1508291755097.2627,22.94921875,35.64453125,-9.765625,104.4921875,13.18359375
1508291755101.169,18.06640625,35.15625,-6.8359375,92.7734375,45.8984375
1508291755118.2422,1.46484375,36.1328125,-9.765625,74.70703125,24.4140625
1508291755122.1484,1.46484375,34.66796875,-13.18359375,70.80078125,0.0
1508291755126.0547,12.6953125,32.2265625,-5.37109375,86.42578125,49.31640625
1508291755129.961,16.11328125,28.3203125,2.44140625,85.44921875,55.17578125
1508291755133.8672,1.46484375,19.04296875,-2.9296875,74.70703125,4.39453125
1508291755137.7734,-1.953125,22.4609375,-4.8828125,83.984375,9.27734375
1508291755141.6797,19.04296875,29.296875,3.90625,92.7734375,16.6015625
1508291755145.586,27.34375,31.73828125,14.6484375,94.7265625,31.25
1508291755149.4922,13.18359375,32.71484375,14.16015625,93.75,30.2734375
1508291755153.3984,0.48828125,30.76171875,12.6953125,80.078125,-3.41796875
1508291755157.3047,14.6484375,31.73828125,19.04296875,83.984375,14.6484375
1508291755161.211,19.53125,38.57421875,13.671875,83.984375,31.25
1508291755163.2942,-0.48828125,40.52734375,-6.8359375,77.1484375,-2.9296875
1508291755167.2004,-12.6953125,38.57421875,-17.578125,61.5234375,7.8125
1508291755171.1067,-0.9765625,38.57421875,-20.01953125,64.94140625,27.34375
1508291755175.013,18.06640625,30.76171875,-24.4140625,83.984375,19.04296875
1508291755178.9192,14.16015625,26.85546875,-28.3203125,76.66015625,23.4375
1508291755182.8254,-9.765625,32.2265625,-23.92578125,63.96484375,28.3203125
1508291755186.7317,-4.39453125,32.2265625,-9.765625,64.453125,13.671875
1508291755190.638,11.71875,31.25,3.90625,75.68359375,45.41015625
1508291755194.5442,9.27734375,31.25,1.953125,77.63671875,67.3828125
1508291755198.4504,-14.6484375,31.73828125,-6.8359375,51.7578125,16.11328125
1508291755202.3567,-19.04296875,33.203125,5.37109375,51.7578125,29.296875
1508291755206.263,6.34765625,34.66796875,17.578125,77.1484375,61.03515625
1508291755208.3062,10.25390625,34.1796875,14.6484375,75.68359375,41.50390625
1508291755212.2124,-9.27734375,31.25,7.32421875,64.453125,60.05859375
1508291755216.1187,-10.25390625,32.2265625,5.859375,61.5234375,71.2890625
1508291755220.025,11.23046875,36.1328125,3.41796875,77.1484375,57.12890625
1508291755223.9312,14.6484375,38.0859375,-1.953125,75.1953125,41.9921875
1508291755227.8374,-4.39453125,39.55078125,-1.953125,61.5234375,31.73828125
1508291755231.7437,-10.25390625,37.109375,-1.953125,56.15234375,5.859375
1508291755235.65,3.90625,33.203125,6.8359375,71.77734375,29.296875
1508291755239.5562,18.06640625,33.69140625,4.39453125,82.03125,31.25
1508291755243.4624,10.25390625,36.62109375,3.41796875,67.3828125,18.5546875
1508291755247.3687,-5.859375,37.109375,13.18359375,68.84765625,54.6875
1508291755251.275,-4.39453125,30.2734375,11.23046875,76.66015625,22.94921875
1508291755253.3445,5.859375,26.85546875,10.7421875,79.58984375,9.765625
1508291755257.2507,10.7421875,28.3203125,-4.8828125,62.98828125,43.9453125
1508291755261.157,-4.39453125,29.78515625,-15.625,42.96875,22.4609375
1508291755265.0632,-14.16015625,26.3671875,-12.20703125,48.828125,16.11328125
1508291755268.9695,-1.953125,7.8125,-12.20703125,62.5,35.64453125
1508291755272.8757,2.44140625,-22.4609375,-14.16015625,63.96484375,34.66796875
1508291755276.782,-6.8359375,-38.0859375,-17.08984375,54.19921875,14.6484375
1508291755280.6882,-20.01953125,-15.625,-21.484375,55.6640625,10.7421875
1508291755284.5945,-9.27734375,13.671875,-23.92578125,59.08203125,-26.85546875
1508291755288.5007,4.8828125,28.3203125,-10.25390625,61.5234375,-12.20703125
1508291755292.407,-3.41796875,32.71484375,-7.8125,63.4765625,-12.20703125
1508291755296.3132,-17.578125,35.64453125,-21.484375,49.8046875,-25.87890625
1508291755313.3809,-7.8125,37.59765625,-24.90234375,58.10546875,20.5078125
1508291755317.287,7.32421875,34.66796875,-21.484375,67.87109375,41.015625
1508291755321.1934,3.41796875,36.62109375,-18.06640625,64.453125,29.78515625
1508291755325.0996,-5.37109375,35.15625,-23.4375,51.26953125,-16.6015625
1508291755329.0059,-9.27734375,27.34375,-26.3671875,46.875,-1.46484375
1508291755332.912,-2.44140625,24.4140625,-23.4375,58.59375,10.25390625
1508291755336.8184,4.8828125,25.87890625,-21.97265625,61.03515625,5.37109375
1508291755340.7246,-8.30078125,26.3671875,-41.9921875,41.50390625,-1.953125
1508291755344.6309,-12.6953125,24.4140625,-56.15234375,27.83203125,-30.2734375
1508291755348.537,4.39453125,23.4375,-36.62109375,57.6171875,18.06640625
1508291755352.4434,11.71875,21.97265625,-41.50390625,69.3359375,-3.90625
1508291755356.3496,0.9765625,24.90234375,-37.59765625,49.8046875,2.9296875
1508291755343.4043,-16.11328125,27.83203125,-20.01953125,44.921875,41.9921875
1508291755347.3105,-4.8828125,24.4140625,-7.8125,55.17578125,22.4609375
1508291755351.2168,4.8828125,21.484375,3.90625,60.05859375,35.64453125
1508291755355.123,-4.39453125,22.94921875,6.8359375,57.12890625,54.6875
1508291755359.0293,-14.6484375,26.3671875,0.48828125,49.8046875,22.4609375
1508291755362.9355,0.0,27.83203125,0.0,52.24609375,-13.18359375
1508291755366.8418,21.484375,27.34375,11.23046875,56.640625,-16.11328125
1508291755370.748,12.20703125,26.85546875,18.5546875,50.78125,-28.80859375
1508291755374.6543,-9.27734375,24.90234375,23.92578125,41.50390625,-12.6953125
1508291755378.5605,-7.32421875,25.390625,27.83203125,42.96875,15.625
1508291755382.4668,6.8359375,28.80859375,28.80859375,48.828125,8.30078125
1508291755386.373,8.30078125,30.2734375,22.94921875,33.69140625,1.46484375
1508291755388.4338,-5.37109375,31.25,32.2265625,21.97265625,20.5078125
1508291755392.34,-9.765625,33.203125,33.69140625,34.1796875,7.8125
1508291755396.2463,3.90625,35.15625,25.390625,41.9921875,-20.01953125
1508291755400.1526,8.7890625,34.1796875,30.76171875,41.50390625,-25.87890625
1508291755404.0588,-6.34765625,31.73828125,37.59765625,28.80859375,-15.13671875
1508291755407.965,-19.04296875,29.296875,28.80859375,23.92578125,-32.71484375
1508291755411.8713,-10.7421875,27.34375,18.5546875,25.87890625,-63.96484375
1508291755415.7776,-0.9765625,25.390625,18.5546875,23.92578125,-49.8046875
1508291755419.6838,-1.953125,27.34375,23.4375,30.2734375,-22.94921875
1508291755423.59,-11.23046875,30.2734375,14.6484375,14.16015625,-33.203125
1508291755427.4963,-7.8125,27.34375,14.16015625,16.6015625,-25.390625
1508291755431.4026,4.8828125,23.92578125,26.3671875,35.15625,0.0
1508291755432.9666,-2.44140625,24.4140625,26.85546875,34.66796875,9.765625
1508291755436.8728,-21.97265625,29.78515625,24.90234375,20.01953125,10.25390625
1508291755440.779,-22.4609375,31.73828125,35.15625,20.99609375,26.85546875
1508291755444.6853,-5.37109375,28.3203125,45.8984375,35.15625,41.50390625
1508291755448.5916,3.90625,27.83203125,40.0390625,38.0859375,24.90234375
1508291755452.4978,-6.34765625,26.85546875,26.85546875,35.64453125,4.8828125
1508291755456.404,-10.7421875,25.87890625,16.6015625,24.90234375,-39.0625
1508291755460.3103,6.8359375,26.3671875,28.3203125,50.29296875,-32.71484375
1508291755464.2166,16.11328125,25.87890625,41.015625,75.1953125,9.765625
1508291755468.1228,0.9765625,23.4375,28.80859375,59.08203125,-0.9765625
1508291755472.029,-14.6484375,23.92578125,23.92578125,46.875,-7.32421875
1508291755475.9353,0.9765625,23.92578125,32.71484375,52.734375,8.30078125
1508291755478.4978,11.23046875,18.5546875,27.83203125,64.94140625,27.34375
1508291755482.404,2.9296875,19.53125,17.08984375,62.5,-10.7421875
1508291755486.3103,-8.7890625,23.4375,19.04296875,49.31640625,-31.73828125
1508291755490.2166,-0.48828125,24.4140625,34.66796875,56.15234375,8.30078125
1508291755494.1228,12.6953125,24.4140625,46.875,64.453125,0.48828125
1508291755498.029,-0.48828125,18.06640625,34.66796875,56.15234375,-6.8359375
1508291755501.9353,-11.71875,16.11328125,33.69140625,46.875,16.11328125
1508291755505.8416,1.953125,23.4375,51.7578125,57.12890625,17.578125
1508291755509.7478,20.01953125,32.71484375,49.8046875,55.6640625,10.25390625
1508291755513.654,15.625,41.9921875,42.96875,42.48046875,20.99609375
1508291755517.5603,6.34765625,45.8984375,44.43359375,27.83203125,41.9921875
1508291755521.4666,13.18359375,45.41015625,39.55078125,-5.37109375,20.01953125
1508291755538.5427,32.2265625,44.921875,41.015625,-23.4375,-21.484375
1508291755542.449,42.48046875,46.875,47.8515625,-31.73828125,-12.20703125
1508291755546.3552,32.2265625,46.38671875,56.15234375,-51.26953125,20.99609375
1508291755550.2615,18.5546875,43.9453125,57.12890625,-71.77734375,26.3671875
1508291755554.1677,28.3203125,43.45703125,50.78125,-67.87109375,25.87890625
1508291755558.074,39.55078125,40.52734375,48.33984375,-69.82421875,-7.32421875
1508291755561.9802,40.52734375,37.109375,52.734375,-76.66015625,-30.76171875
1508291755565.8865,29.78515625,38.57421875,50.78125,-83.49609375,-40.52734375
1508291755569.7927,27.34375,40.0390625,35.15625,-86.42578125,-36.1328125
1508291755573.699,40.0390625,40.0390625,30.76171875,-83.49609375,-1.46484375
1508291755577.6052,33.69140625,39.55078125,41.9921875,-78.125,-3.90625
1508291755581.5115,13.671875,37.109375,34.66796875,-86.9140625,-23.4375
1508291755583.0715,15.13671875,36.1328125,18.5546875,-106.93359375,-42.96875
1508291755586.9778,33.69140625,35.15625,23.92578125,-96.6796875,-31.73828125
1508291755590.884,35.15625,37.59765625,28.3203125,-83.0078125,14.6484375
1508291755594.7903,17.578125,39.0625,18.5546875,-98.6328125,22.94921875
1508291755598.6965,1.953125,37.59765625,6.34765625,-119.140625,16.6015625
1508291755602.6028,14.16015625,39.0625,3.90625,-112.79296875,26.85546875
1508291755606.509,22.4609375,35.15625,6.8359375,-100.5859375,24.4140625
1508291755610.4153,18.06640625,28.80859375,2.9296875,-113.28125,23.92578125
1508291755614.3215,6.34765625,25.87890625,-4.39453125,-125.48828125,11.23046875
1508291755618.2278,16.11328125,28.3203125,4.39453125,-106.93359375,-11.23046875
1508291755622.134,30.2734375,32.2265625,14.6484375,-88.8671875,21.97265625
1508291755626.0403,23.4375,33.69140625,0.48828125,-98.6328125,26.85546875
1508291755628.105,3.41796875,33.203125,-5.859375,-106.4453125,3.90625
1508291755632.0112,-1.46484375,29.78515625,-5.37109375,-103.02734375,-14.16015625
1508291755635.9175,8.30078125,24.4140625,-5.859375,-84.47265625,-28.80859375
1508291755639.8237,5.37109375,23.4375,-11.23046875,-73.73046875,-1.46484375
1508291755643.73,-3.41796875,24.90234375,-16.11328125,-77.1484375,31.25
1508291755647.6362,-10.25390625,23.92578125,-15.13671875,-67.87109375,17.08984375
1508291755651.5425,6.34765625,29.78515625,-11.23046875,-55.6640625,-2.9296875
1508291755655.4487,20.99609375,35.15625,-16.6015625,-59.08203125,-5.37109375
1508291755659.355,7.32421875,35.15625,-30.76171875,-69.82421875,12.6953125
1508291755663.2612,-10.25390625,34.1796875,-23.92578125,-71.2890625,39.55078125
1508291755667.1675,1.953125,30.76171875,-17.578125,-53.7109375,24.4140625
1508291755671.0737,13.671875,23.92578125,-25.390625,-35.64453125,33.203125
1508291755673.1372,5.859375,23.92578125,-19.04296875,-26.3671875,62.5
1508291755677.0435,-10.25390625,24.4140625,-10.25390625,-32.2265625,78.125
1508291755680.9497,-1.46484375,21.97265625,-10.7421875,-26.3671875,80.078125
1508291755684.856,18.5546875,27.34375,-15.13671875,-20.01953125,93.26171875
1508291755688.7622,13.18359375,29.296875,-10.25390625,-25.390625,113.28125
1508291755692.6685,-4.39453125,28.3203125,-6.34765625,-39.0625,63.96484375
1508291755696.5747,-1.953125,32.71484375,-10.25390625,-45.8984375,17.578125
1508291755700.481,18.06640625,28.3203125,-13.18359375,-34.66796875,22.94921875
1508291755704.3872,17.578125,20.5078125,-6.34765625,-33.203125,59.08203125
1508291755708.2935,9.27734375,20.5078125,2.44140625,-29.78515625,23.4375
1508291755712.1997,11.71875,23.4375,-5.859375,-32.2265625,3.90625
1508291755716.106,23.4375,22.94921875,-7.8125,-27.34375,31.73828125
1508291755718.1702,28.80859375,22.4609375,-6.8359375,-16.6015625,53.22265625
1508291755722.0764,16.11328125,23.4375,-7.32421875,-19.04296875,33.203125
1508291755725.9827,-1.46484375,20.99609375,-9.765625,-23.4375,-7.32421875
1508291755729.889,9.27734375,18.06640625,-10.25390625,-15.625,-12.20703125
1508291755733.7952,20.5078125,17.578125,-10.25390625,-8.30078125,-7.8125
1508291755737.7014,12.20703125,16.6015625,-16.11328125,-14.6484375,3.90625
1508291755741.6077,-5.859375,17.578125,-24.90234375,-17.08984375,16.11328125
1508291755745.514,-0.9765625,24.4140625,-26.85546875,-13.671875,9.765625
1508291755749.4202,14.16015625,25.390625,-13.18359375,-6.34765625,-6.8359375
1508291755753.3264,9.765625,25.390625,-10.7421875,-3.41796875,-1.46484375
1508291755757.2327,-5.859375,25.87890625,-29.78515625,-23.4375,-16.11328125
1508291755761.139,-11.23046875,22.94921875,-38.57421875,-25.87890625,16.6015625
1508291755765.2039,5.859375,20.5078125,-36.1328125,-12.6953125,-1.953125
1508291755769.11,13.18359375,21.97265625,-34.1796875,-3.41796875,13.18359375
1508291755773.0164,2.44140625,29.296875,-42.48046875,-15.13671875,35.15625
1508291755776.9226,-4.8828125,33.203125,-41.9921875,-23.92578125,16.6015625
1508291755780.8289,11.23046875,30.2734375,-26.3671875,-8.7890625,-2.44140625
1508291755784.735,22.4609375,30.2734375,-22.94921875,0.0,-14.16015625
1508291755788.6414,6.8359375,30.76171875,-29.78515625,-7.8125,16.6015625
1508291755792.5476,-9.765625,26.3671875,-30.2734375,-25.87890625,-2.44140625
1508291755796.4539,1.953125,27.83203125,-6.8359375,-6.8359375,4.39453125
1508291755800.36,18.06640625,30.2734375,-5.859375,0.9765625,27.34375
1508291755804.2664,14.16015625,30.2734375,-16.11328125,-6.34765625,18.06640625
1508291755808.1726,2.44140625,30.76171875,-21.484375,-10.7421875,11.23046875
1508291755808.2332,4.8828125,29.296875,-30.2734375,-9.27734375,24.90234375
1508291755812.1394,8.7890625,27.83203125,-34.1796875,2.44140625,28.3203125
1508291755816.0457,7.8125,23.92578125,-39.0625,3.41796875,30.76171875
1508291755819.952,-5.859375,20.01953125,-39.55078125,-14.6484375,48.33984375
1508291755823.8582,-10.7421875,17.578125,-35.64453125,-11.23046875,20.01953125
1508291755827.7644,11.71875,17.578125,-34.1796875,13.18359375,0.48828125
1508291755831.6707,17.578125,16.11328125,-43.45703125,5.37109375,-6.8359375
1508291755835.577,3.90625,14.6484375,-40.52734375,-9.27734375,14.16015625
1508291755839.4832,-1.953125,19.53125,-35.64453125,-6.34765625,31.73828125
1508291755843.3894,11.23046875,24.4140625,-39.55078125,6.34765625,38.57421875
1508291755847.2957,15.13671875,29.78515625,-39.0625,5.859375,34.66796875
1508291755851.202,4.39453125,32.71484375,-41.015625,-5.37109375,28.80859375
1508291755868.2754,-9.765625,29.296875,-43.9453125,-12.20703125,33.69140625
1508291755872.1816,1.46484375,25.87890625,-41.50390625,5.859375,6.34765625
1508291755876.088,16.11328125,25.87890625,-30.2734375,11.71875,12.6953125
1508291755879.9941,12.20703125,25.87890625,-28.80859375,0.48828125,27.83203125
1508291755883.9004,0.48828125,26.85546875,-40.0390625,-0.9765625,46.875
1508291755887.8066,1.953125,26.3671875,-60.546875,4.39453125,38.57421875
1508291755891.713,16.11328125,22.4609375,-58.59375,9.27734375,2.9296875
1508291755895.6191,14.6484375,22.4609375,-39.55078125,8.7890625,13.18359375
1508291755899.5254,-2.9296875,22.94921875,-47.8515625,6.8359375,-2.9296875
1508291755903.4316,-3.90625,23.4375,-46.875,8.30078125,11.71875
1508291755907.338,20.5078125,24.4140625,-39.0625,27.34375,39.0625
1508291755911.2441,29.296875,25.390625,-42.96875,37.59765625,21.97265625
1508291755913.3086,16.6015625,27.34375,-52.24609375,26.3671875,30.76171875
1508291755917.2148,10.7421875,27.83203125,-52.24609375,20.99609375,57.12890625
1508291755921.121,14.16015625,22.4609375,-48.33984375,30.2734375,46.875
1508291755925.0273,20.01953125,20.01953125,-45.8984375,27.83203125,44.43359375
1508291755928.9336,14.6484375,20.99609375,-44.43359375,17.578125,38.0859375
1508291755932.8398,-8.30078125,20.99609375,-52.734375,1.953125,73.2421875
1508291755936.746,2.44140625,21.484375,-50.29296875,5.37109375,55.6640625
1508291755940.6523,25.87890625,25.390625,-44.921875,22.94921875,12.6953125
1508291755944.5586,21.97265625,33.203125,-52.734375,14.6484375,30.2734375
1508291755948.4648,5.859375,32.71484375,-57.6171875,-7.32421875,2.9296875
1508291755952.371,8.7890625,32.71484375,-41.50390625,-2.44140625,-2.9296875
1508291755956.2773,18.5546875,34.1796875,-29.296875,24.4140625,13.671875
1508291755958.3403,13.18359375,29.296875,-33.203125,17.578125,15.625
1508291755962.2466,-2.9296875,24.4140625,-32.2265625,3.90625,24.4140625
1508291755966.1528,-10.25390625,25.390625,-27.83203125,-5.859375,-5.37109375
1508291755970.059,4.39453125,27.34375,-20.99609375,-2.44140625,22.94921875
1508291755973.9653,11.23046875,24.4140625,-20.01953125,13.18359375,15.625
1508291755977.8716,1.46484375,25.87890625,-18.06640625,15.13671875,-18.5546875
1508291755981.7778,-11.23046875,30.2734375,-10.7421875,10.25390625,16.11328125
1508291755985.684,3.41796875,31.25,-11.23046875,16.11328125,9.765625
1508291755989.5903,16.11328125,32.2265625,-22.4609375,13.671875,-16.6015625
1508291755993.4966,7.8125,33.69140625,-21.484375,8.7890625,-20.99609375
1508291755997.4028,-4.8828125,33.203125,-10.25390625,4.39453125,-6.34765625
1508291756001.309,-4.39453125,33.69140625,-18.06640625,11.23046875,-3.41796875
1508291756003.3704,11.71875,28.80859375,-22.94921875,17.578125,9.765625
1508291756007.2766,17.578125,26.3671875,-23.4375,23.92578125,9.765625
1508291756011.1829,-7.8125,32.2265625,-29.78515625,29.78515625,-0.48828125
1508291756015.089,-22.4609375,31.73828125,-29.78515625,24.4140625,0.0
1508291756018.9954,-0.48828125,27.34375,-22.94921875,35.64453125,-4.8828125
1508291756022.9016,9.765625,28.3203125,-25.390625,26.85546875,31.73828125
1508291756026.8079,-6.34765625,33.69140625,-27.83203125,5.859375,37.109375
1508291756030.714,-15.625,34.66796875,-28.80859375,-1.46484375,14.6484375
1508291756034.6204,2.9296875,33.203125,-35.64453125,8.7890625,-8.7890625
1508291756038.5266,12.6953125,30.2734375,-26.3671875,26.85546875,-14.16015625
1508291756042.4329,3.90625,25.87890625,-21.484375,31.73828125,32.2265625
1508291756046.339,-12.20703125,20.99609375,-30.2734375,16.6015625,37.59765625
1508291756048.402,-1.953125,22.94921875,-24.90234375,13.671875,59.08203125
1508291756052.3083,14.16015625,24.90234375,-20.01953125,19.53125,62.01171875
1508291756056.2146,14.6484375,22.94921875,-23.92578125,18.06640625,60.546875
1508291756060.1208,0.0,24.90234375,-32.71484375,9.765625,33.69140625
1508291756064.027,-1.46484375,24.90234375,-39.0625,14.6484375,4.8828125
1508291756067.9333,12.20703125,24.90234375,-41.50390625,24.90234375,7.8125
