timestamp,TP9,AF7,AF8,TP10,Right AUX
1510194887.9581294,0.0,-968.26171875,999.51171875,174.8046875,38.57421875
1510194887.9620357,-4.8828125,964.35546875,999.51171875,50.78125,42.48046875
1510194887.965942,-13.671875,922.36328125,999.51171875,-21.484375,28.80859375
1510194887.9698482,5.37109375,987.3046875,999.51171875,100.5859375,33.69140625
1510194887.9737544,0.0,-986.328125,999.51171875,211.42578125,68.84765625
1510194887.9776607,4.39453125,984.375,999.51171875,85.44921875,57.6171875
1510194887.981567,18.5546875,898.4375,999.51171875,-10.25390625,29.296875
1510194887.9854732,24.4140625,967.28515625,999.51171875,65.91796875,62.5
1510194887.9893794,11.71875,-986.81640625,999.51171875,172.8515625,66.89453125
1510194887.9932857,23.4375,992.67578125,999.51171875,159.66796875,9.765625
1510194887.997192,15.625,-999.0234375,999.51171875,21.97265625,-33.203125
1510194888.0010982,9.27734375,999.51171875,999.51171875,-9.765625,-41.015625
1510194888.0181694,26.3671875,999.51171875,999.51171875,141.11328125,15.13671875
1510194888.0220757,35.64453125,999.51171875,999.51171875,179.19921875,35.15625
1510194888.025982,39.0625,999.51171875,999.51171875,28.80859375,26.85546875
1510194888.0298882,36.1328125,999.51171875,999.51171875,-23.4375,20.5078125
1510194888.0337944,22.4609375,999.51171875,999.51171875,103.02734375,58.10546875
1510194888.0377007,37.109375,999.51171875,999.51171875,193.359375,104.98046875
1510194888.041607,80.078125,999.51171875,999.51171875,81.54296875,63.96484375
1510194888.0455132,59.08203125,999.51171875,999.51171875,-40.0390625,37.109375
1510194888.0494194,36.1328125,999.51171875,999.51171875,37.59765625,42.48046875
1510194888.0533257,67.87109375,999.51171875,999.51171875,171.38671875,60.546875
1510194888.057232,48.33984375,999.51171875,999.51171875,90.8203125,55.17578125
1510194888.0611382,3.41796875,999.51171875,999.51171875,-23.4375,-18.5546875
1510194888.0627027,23.92578125,999.51171875,999.51171875,7.32421875,-18.5546875
1510194888.066609,34.66796875,999.51171875,999.51171875,144.04296875,20.01953125
1510194888.0705152,2.9296875,999.51171875,999.51171875,138.18359375,21.97265625
1510194888.0744214,10.7421875,999.51171875,999.51171875,-18.5546875,58.59375
1510194888.0783277,21.97265625,999.51171875,999.51171875,-64.94140625,34.66796875
1510194888.082234,12.20703125,999.51171875,999.51171875,85.9375,-42.96875
1510194888.0861402,22.94921875,999.51171875,999.51171875,126.46484375,-41.015625
1510194888.0900464,12.6953125,999.51171875,999.51171875,-32.71484375,-28.3203125
1510194888.0939527,-0.48828125,999.51171875,999.51171875,-94.7265625,51.7578125
1510194888.097859,28.80859375,999.51171875,999.51171875,19.53125,65.91796875
1510194888.1017652,69.82421875,999.51171875,999.51171875,128.41796875,-8.30078125
1510194888.1056714,26.3671875,999.51171875,999.51171875,24.90234375,4.8828125
1510194888.1077344,-8.7890625,999.51171875,999.51171875,-83.0078125,13.18359375
1510194888.1116407,1.953125,999.51171875,999.51171875,-8.7890625,0.0
1510194888.115547,26.3671875,999.51171875,999.51171875,117.67578125,-9.765625
1510194888.1194532,50.29296875,999.51171875,999.51171875,55.17578125,3.41796875
1510194888.1233594,15.13671875,999.51171875,999.51171875,-100.5859375,11.23046875
1510194888.1272657,9.765625,-1000.0,999.51171875,-85.9375,32.71484375
1510194888.131172,23.92578125,990.72265625,999.51171875,78.61328125,50.78125
1510194888.1350782,-1.953125,-974.12109375,999.51171875,108.88671875,13.671875
1510194888.1389844,-15.625,886.71875,999.51171875,-37.59765625,30.76171875
1510194888.1428907,-27.34375,843.75,999.51171875,-92.28515625,59.5703125
1510194888.146797,13.671875,-991.69921875,999.51171875,66.40625,15.625
1510194888.1507032,32.71484375,-1000.0,999.51171875,133.30078125,20.5078125
1510194888.1527858,-28.80859375,976.5625,999.51171875,-1.953125,52.734375
1510194888.156692,-50.78125,755.859375,999.51171875,-90.8203125,19.04296875
1510194888.1605983,-10.7421875,708.49609375,999.51171875,-8.7890625,-10.7421875
1510194888.1645045,11.23046875,825.68359375,999.51171875,105.46875,36.1328125
1510194888.1684108,16.6015625,613.76953125,999.51171875,22.94921875,46.875
1510194888.172317,39.0625,156.73828125,999.51171875,-83.984375,21.484375
1510194888.1762233,27.83203125,94.7265625,999.51171875,-27.83203125,21.484375
1510194888.1801295,9.27734375,309.08203125,999.51171875,86.42578125,20.99609375
1510194888.1840358,10.7421875,75.68359375,999.51171875,32.71484375,25.390625
1510194888.187942,11.23046875,-25.390625,999.51171875,-104.98046875,49.8046875
1510194888.1918483,-16.11328125,-166.9921875,999.51171875,-83.49609375,23.4375
1510194888.1957545,-36.62109375,-134.765625,999.51171875,70.80078125,6.8359375
1510194888.197797,-0.48828125,69.3359375,999.51171875,77.1484375,-0.48828125
1510194888.2017033,24.90234375,-133.7890625,999.51171875,-70.80078125,-1.46484375
1510194888.2056096,7.32421875,-468.75,999.51171875,-67.87109375,-7.8125
1510194888.2095158,14.16015625,-414.0625,999.51171875,54.6875,34.66796875
1510194888.213422,-28.80859375,-122.0703125,999.51171875,95.703125,91.796875
1510194888.2173283,-32.2265625,-381.8359375,999.51171875,-10.25390625,65.91796875
1510194888.2212346,-10.25390625,-742.1875,999.51171875,-82.51953125,3.41796875
1510194888.2251408,19.53125,-769.04296875,999.51171875,9.765625,33.69140625
1510194888.229047,5.37109375,-440.4296875,999.51171875,97.65625,58.10546875
1510194888.2329533,-28.3203125,-136.23046875,999.51171875,13.671875,78.125
1510194888.2368596,-1.46484375,-445.3125,999.51171875,-103.515625,84.47265625
1510194888.2407658,2.44140625,-777.83203125,999.51171875,-53.7109375,63.4765625
1510194888.2428305,30.76171875,-422.8515625,999.51171875,72.75390625,54.6875
1510194888.2467368,39.0625,-188.96484375,999.51171875,82.03125,18.06640625
1510194888.250643,0.9765625,-553.7109375,999.51171875,7.8125,63.96484375
1510194888.2545493,-26.3671875,-798.33984375,999.51171875,3.90625,47.8515625
1510194888.2584555,13.671875,-513.671875,999.51171875,104.98046875,48.828125
1510194888.2623618,74.21875,-470.703125,999.51171875,121.09375,71.2890625
1510194888.266268,8.30078125,-860.3515625,999.51171875,-5.859375,-11.23046875
1510194888.2701743,-13.18359375,-995.1171875,999.51171875,-69.3359375,-1.46484375
1510194888.2740805,22.4609375,-913.57421875,999.51171875,40.52734375,3.90625
1510194888.2779868,30.2734375,-733.88671875,999.51171875,128.90625,-14.6484375
1510194888.281893,10.7421875,-840.8203125,999.51171875,22.94921875,21.484375
1510194888.2857993,-3.90625,-986.328125,999.51171875,-62.98828125,-18.5546875
1510194888.2878623,53.7109375,-978.515625,999.51171875,-14.6484375,-20.01953125
1510194888.2917686,91.30859375,-845.21484375,999.51171875,90.33203125,9.27734375
1510194888.2956748,71.77734375,-846.19140625,999.51171875,52.24609375,0.48828125
1510194888.299581,21.97265625,-978.02734375,999.51171875,-62.98828125,23.92578125
1510194888.3034873,12.20703125,-991.2109375,999.51171875,-24.4140625,18.06640625
1510194888.3073936,50.78125,-868.1640625,999.51171875,96.19140625,5.859375
1510194888.3112998,15.625,-826.66015625,999.51171875,85.9375,82.03125
1510194888.315206,-3.41796875,-987.3046875,999.51171875,-45.8984375,61.03515625
1510194888.3191123,32.71484375,-889.6484375,999.51171875,-41.9921875,41.50390625
1510194888.3230186,36.62109375,-603.515625,999.51171875,88.37890625,31.73828125
1510194888.3269248,43.9453125,-438.4765625,999.51171875,110.83984375,-40.0390625
1510194888.330831,33.69140625,-507.8125,999.51171875,16.11328125,-25.390625
1510194888.3333933,27.34375,-671.875,999.51171875,-36.62109375,-27.34375
1510194888.3372996,17.08984375,-596.6796875,999.51171875,30.76171875,-20.01953125
1510194888.3412058,-22.94921875,-305.17578125,999.51171875,109.86328125,27.34375
1510194888.345112,20.01953125,-261.23046875,999.51171875,33.69140625,32.2265625
1510194888.3490183,56.640625,-473.6328125,999.51171875,-40.52734375,46.875
1510194888.3529246,25.390625,-672.8515625,999.51171875,32.2265625,58.59375
1510194888.3568308,34.1796875,-655.76171875,999.51171875,127.44140625,36.1328125
1510194888.360737,36.1328125,-442.3828125,999.51171875,97.65625,43.45703125
1510194888.3646433,23.92578125,-530.2734375,999.51171875,0.0,46.38671875
1510194888.3685496,19.53125,-704.1015625,999.51171875,-8.30078125,27.83203125
1510194888.3724558,41.50390625,-471.19140625,999.51171875,125.9765625,10.25390625
1510194888.376362,17.08984375,-205.078125,999.51171875,143.5546875,6.8359375
1510194888.3939364,-0.9765625,-410.64453125,999.51171875,4.8828125,50.29296875
1510194888.3978426,-11.23046875,-759.765625,999.51171875,-43.45703125,43.45703125
1510194888.401749,-5.37109375,-666.50390625,999.51171875,69.3359375,-12.6953125
1510194888.4056551,49.8046875,-330.078125,999.51171875,183.10546875,-10.25390625
1510194888.4095614,43.9453125,-469.7265625,999.51171875,75.1953125,47.8515625
1510194888.4134676,9.27734375,-883.30078125,999.51171875,-26.85546875,36.1328125
1510194888.417374,13.671875,-949.21875,999.51171875,85.44921875,-0.9765625
1510194888.4212801,8.7890625,-561.03515625,999.51171875,171.875,40.0390625
1510194888.4251864,3.41796875,-532.71484375,999.51171875,59.08203125,71.2890625
1510194888.4290926,-5.859375,-887.20703125,999.51171875,-13.671875,79.1015625
1510194888.432999,-23.4375,-1000.0,999.51171875,51.26953125,43.45703125
1510194888.4369051,-23.4375,-748.046875,999.51171875,160.64453125,38.0859375
1510194888.4384694,-24.90234375,-677.734375,999.51171875,109.375,15.13671875
1510194888.4423757,-11.23046875,-944.82421875,999.51171875,-15.13671875,-26.3671875
1510194888.446282,-13.18359375,-1000.0,999.51171875,12.6953125,-9.27734375
1510194888.4501882,3.41796875,-835.44921875,999.51171875,154.296875,20.5078125
1510194888.4540944,7.8125,-778.3203125,999.51171875,186.03515625,18.06640625
1510194888.4580007,-39.55078125,-962.890625,999.51171875,34.66796875,7.8125
1510194888.461907,-26.3671875,-994.62890625,999.51171875,-55.17578125,-34.66796875
1510194888.4658132,8.30078125,-901.85546875,999.51171875,79.58984375,5.859375
1510194888.4697194,-0.9765625,-853.515625,999.51171875,166.50390625,44.921875
1510194888.4736257,-48.33984375,-966.796875,999.51171875,33.203125,-13.18359375
1510194888.477532,-31.73828125,-982.91015625,999.51171875,-21.97265625,30.76171875
1510194888.4814382,35.64453125,-938.4765625,999.51171875,72.75390625,69.82421875
1510194888.4829996,4.8828125,-922.8515625,999.51171875,178.22265625,1.953125
1510194888.4869058,-4.39453125,-971.19140625,999.51171875,107.91015625,16.6015625
1510194888.490812,-9.765625,-971.6796875,999.51171875,-16.6015625,62.5
1510194888.4947183,-22.94921875,-968.26171875,999.51171875,24.90234375,35.15625
1510194888.4986246,-13.18359375,-970.21484375,998.53515625,155.2734375,23.4375
1510194888.5025308,7.8125,-970.21484375,-997.55859375,140.13671875,39.55078125
1510194888.506437,32.2265625,-970.21484375,986.328125,11.71875,17.08984375
1510194888.5103433,25.390625,-970.21484375,983.3984375,-0.9765625,-16.6015625
1510194888.5142496,2.9296875,-970.21484375,-997.0703125,139.16015625,41.015625
1510194888.5181558,-1.953125,-970.21484375,992.67578125,136.23046875,24.4140625
1510194888.522062,-13.18359375,-970.21484375,-987.79296875,7.32421875,-3.41796875
1510194888.5259683,-27.34375,-970.21484375,963.37890625,-1.46484375,27.83203125
1510194888.5430439,8.7890625,-970.21484375,902.83203125,123.53515625,-4.8828125
1510194888.54695,34.1796875,-970.21484375,993.1640625,218.26171875,-5.859375
1510194888.5508564,24.4140625,-970.21484375,-995.60546875,103.515625,27.83203125
1510194888.5547626,11.71875,-970.21484375,711.9140625,-20.5078125,11.23046875
1510194888.5586689,-0.9765625,-970.21484375,533.203125,46.875,17.08984375
1510194888.562575,-23.92578125,-970.21484375,723.14453125,166.9921875,2.44140625
1510194888.5664814,0.0,-970.21484375,735.3515625,115.72265625,8.7890625
1510194888.5703876,30.76171875,-970.21484375,341.30859375,21.484375,-0.9765625
1510194888.5742939,47.8515625,-970.21484375,-5.37109375,50.78125,-9.765625
1510194888.5782,53.22265625,-970.21484375,391.11328125,171.38671875,5.37109375
1510194888.5821064,25.390625,-970.21484375,664.55078125,171.875,-16.11328125
1510194888.5860126,-3.90625,-970.21484375,271.484375,30.2734375,5.859375
1510194888.6185958,-0.48828125,-970.21484375,-27.34375,-20.01953125,13.671875
1510194888.622502,-24.90234375,-970.21484375,219.7265625,90.33203125,38.57421875
1510194888.6264083,-20.5078125,-970.21484375,483.3984375,158.69140625,88.37890625
1510194888.6303146,28.80859375,-970.21484375,155.2734375,80.56640625,28.3203125
1510194888.6342208,36.62109375,-970.21484375,-216.796875,3.90625,-6.8359375
1510194888.638127,-20.5078125,-970.21484375,-173.33984375,76.66015625,30.2734375
1510194888.6420333,-28.3203125,-970.21484375,-7.32421875,195.80078125,18.5546875
1510194888.6459396,34.66796875,-970.21484375,-212.40234375,64.94140625,-12.6953125
1510194888.6498458,34.1796875,-970.21484375,-518.5546875,-53.22265625,-29.78515625
1510194888.653752,2.9296875,-970.21484375,-365.234375,65.4296875,-6.34765625
1510194888.6576583,7.32421875,-970.21484375,-42.96875,200.1953125,10.25390625
1510194888.6615646,50.29296875,-970.21484375,-116.69921875,149.4140625,41.9921875
1510194888.6220994,41.50390625,-970.21484375,-395.99609375,3.90625,52.24609375
1510194888.6260056,21.97265625,-970.21484375,-477.5390625,5.859375,-13.671875
1510194888.629912,4.8828125,-970.21484375,-321.2890625,125.9765625,-22.4609375
1510194888.6338181,-42.48046875,-970.21484375,-193.359375,131.8359375,53.22265625
1510194888.6377244,-28.80859375,-970.21484375,-330.078125,21.484375,72.265625
1510194888.6416306,16.11328125,-970.21484375,-623.046875,-3.90625,55.17578125
1510194888.645537,36.1328125,-970.21484375,-616.2109375,105.46875,57.12890625
1510194888.6494431,59.5703125,-970.21484375,-364.74609375,197.75390625,40.0390625
1510194888.6533494,64.453125,-970.21484375,-351.07421875,96.6796875,19.04296875
1510194888.6572556,34.1796875,-970.21484375,-505.37109375,2.9296875,59.5703125
1510194888.661162,7.32421875,-970.21484375,-591.796875,102.05078125,92.28515625
1510194888.6650681,5.37109375,-970.21484375,-551.26953125,191.40625,76.66015625
1510194888.6781387,-0.48828125,-970.21484375,-441.89453125,66.89453125,80.078125
1510194888.682045,28.3203125,-970.21484375,-626.953125,-26.85546875,20.5078125
1510194888.6859512,55.6640625,-970.21484375,-784.66796875,52.734375,10.25390625
1510194888.6898575,48.33984375,-969.23828125,-519.53125,176.26953125,18.06640625
1510194888.6937637,13.18359375,-969.23828125,-337.40234375,119.140625,-11.23046875
1510194888.69767,-2.44140625,-970.21484375,-627.44140625,-14.16015625,35.15625
1510194888.7015762,15.625,-967.7734375,-902.34375,29.296875,51.7578125
1510194888.7054825,-11.71875,-978.02734375,-933.59375,149.4140625,41.50390625
1510194888.7093887,8.7890625,-935.05859375,-564.94140625,160.15625,78.125
1510194888.713295,60.05859375,-920.41015625,-481.93359375,20.5078125,20.99609375
1510194888.7172012,38.0859375,-989.74609375,-862.3046875,-42.48046875,-36.1328125
1510194888.7211075,36.1328125,-912.59765625,-663.57421875,103.515625,2.9296875
1510194888.7231724,19.04296875,-717.7734375,-247.0703125,204.1015625,32.2265625
1510194888.7270787,2.44140625,-796.38671875,-401.3671875,67.3828125,68.359375
1510194888.730985,35.15625,-982.421875,-857.91015625,-25.87890625,15.625
1510194888.7348912,39.0625,-964.35546875,-823.73046875,65.91796875,-69.82421875
1510194888.7387974,44.43359375,-782.71484375,-373.046875,170.41015625,-7.32421875
1510194888.7427037,-32.71484375,-826.66015625,-475.5859375,111.328125,51.7578125
1510194888.74661,-60.546875,-990.234375,-843.75,-16.11328125,43.9453125
1510194888.7505162,46.38671875,-963.37890625,-757.32421875,35.64453125,44.921875
1510194888.7544224,43.45703125,-721.6796875,-381.8359375,164.0625,52.24609375
1510194888.7583287,32.2265625,-716.30859375,-402.83203125,131.8359375,25.390625
1510194888.762235,27.34375,-981.4453125,-907.2265625,5.859375,-44.43359375
1510194888.7661412,7.32421875,-970.21484375,-884.27734375,-17.08984375,3.41796875
1510194888.78374,11.23046875,-730.46875,-474.609375,153.80859375,39.0625
1510194888.7876463,23.4375,-629.8828125,-310.546875,212.40234375,7.32421875
1510194888.7915525,19.04296875,-709.47265625,-435.546875,44.43359375,62.01171875
1510194888.7954588,1.46484375,-740.234375,-567.87109375,-35.64453125,101.07421875
1510194888.799365,-22.4609375,-639.6484375,-446.77734375,81.54296875,61.5234375
1510194888.8032713,-20.99609375,-537.59765625,-247.55859375,170.41015625,55.17578125
1510194888.8071775,-11.71875,-709.47265625,-427.24609375,57.6171875,51.26953125
1510194888.8110838,-46.875,-811.5234375,-639.16015625,-37.59765625,52.24609375
1510194888.81499,-24.90234375,-593.75,-452.1484375,72.265625,116.2109375
1510194888.8188963,32.2265625,-625.48828125,-352.05078125,165.52734375,106.4453125
1510194888.8228025,39.0625,-677.24609375,-388.671875,88.8671875,53.22265625
1510194888.8267088,15.625,-638.18359375,-464.84375,-12.20703125,21.97265625
1510194888.813762,13.671875,-758.30078125,-598.6328125,14.16015625,33.203125
1510194888.8176682,-4.39453125,-670.41015625,-429.19921875,137.6953125,65.4296875
1510194888.8215744,-15.13671875,-561.03515625,-308.10546875,133.30078125,-3.41796875
1510194888.8254807,26.85546875,-710.9375,-531.25,17.578125,-41.015625
1510194888.829387,40.0390625,-903.3203125,-814.453125,-32.71484375,3.90625
1510194888.8332932,13.671875,-928.22265625,-817.3828125,79.58984375,34.66796875
1510194888.8371994,-6.34765625,-687.5,-479.98046875,158.69140625,32.71484375
1510194888.8411057,8.7890625,-707.03125,-527.34375,30.76171875,8.7890625
1510194888.845012,-4.8828125,-962.40234375,-906.25,-66.89453125,24.4140625
1510194888.8489182,4.8828125,-940.4296875,-888.671875,37.109375,-24.90234375
1510194888.8528244,35.64453125,-692.3828125,-490.72265625,144.53125,-43.45703125
1510194888.8567307,51.26953125,-618.1640625,-392.578125,49.31640625,62.98828125
1510194888.8577898,30.2734375,-871.09375,-781.73828125,-68.359375,94.23828125
1510194888.861696,-15.625,-980.46875,-964.84375,7.8125,94.7265625
1510194888.8656023,-21.484375,-727.05078125,-563.4765625,159.1796875,70.3125
1510194888.8695085,13.671875,-664.0625,-426.26953125,103.02734375,29.78515625
1510194888.8734148,45.8984375,-902.34375,-800.78125,-41.9921875,-46.875
1510194888.877321,47.36328125,-991.2109375,-1000.0,-27.34375,-58.59375
1510194888.8812273,53.7109375,-938.4765625,-799.31640625,117.67578125,-8.30078125
1510194888.8851335,43.9453125,-767.578125,-513.671875,112.3046875,52.734375
1510194888.8890398,-16.11328125,-848.6328125,-729.00390625,-34.1796875,80.078125
1510194888.892946,-36.62109375,-1000.0,-1000.0,-78.125,23.4375
1510194888.8968523,22.4609375,-900.390625,-812.98828125,66.40625,8.7890625
1510194888.9007585,25.87890625,-891.6015625,-666.9921875,136.71875,-16.11328125
1510194888.902822,0.9765625,-976.07421875,-877.9296875,-11.23046875,-20.5078125
1510194888.9067283,30.2734375,-972.65625,-990.72265625,-101.5625,34.66796875
1510194888.9106345,30.76171875,-964.35546875,-907.2265625,23.4375,6.34765625
1510194888.9145408,28.80859375,-928.7109375,-702.63671875,139.6484375,-21.484375
1510194888.918447,6.8359375,-950.68359375,-730.46875,28.80859375,40.52734375
1510194888.9223533,-2.9296875,-974.12109375,-943.84765625,-74.70703125,25.87890625
1510194888.9262595,2.44140625,-967.7734375,-941.89453125,0.48828125,-14.16015625
1510194888.9301658,-15.625,-960.44921875,-713.37890625,120.60546875,4.39453125
1510194888.934072,1.953125,-967.28515625,-801.7578125,55.6640625,1.46484375
1510194888.9379783,31.25,-971.19140625,-937.5,-71.77734375,-28.80859375
1510194888.9418845,29.296875,-968.75,-884.765625,-50.78125,-16.6015625
1510194888.9457908,31.25,-973.14453125,-687.01171875,75.1953125,25.390625
1510194888.947856,11.23046875,-950.1953125,-459.47265625,107.421875,61.03515625
1510194888.9517622,0.0,-953.61328125,-547.8515625,-36.1328125,94.7265625
1510194888.9556684,11.71875,-974.12109375,-866.69921875,-108.88671875,62.01171875
1510194888.9595747,-0.9765625,-968.75,-796.875,28.80859375,41.50390625
1510194888.963481,4.8828125,-969.7265625,-425.29296875,123.046875,41.015625
1510194888.9673872,23.4375,-969.7265625,-598.14453125,8.30078125,-7.32421875
1510194888.9712934,12.20703125,-970.21484375,-906.25,-90.8203125,-3.90625
1510194888.9751997,2.9296875,-970.21484375,-1000.0,-33.203125,-45.41015625
1510194888.979106,14.6484375,-970.21484375,-747.55859375,90.8203125,-48.828125
1510194888.9830122,17.08984375,-970.21484375,-403.80859375,47.8515625,9.27734375
1510194888.9869184,-4.39453125,-970.21484375,-632.32421875,-93.26171875,11.23046875
1510194888.9908247,20.5078125,-970.21484375,-731.93359375,-44.43359375,66.40625
1510194888.9933875,65.91796875,-970.21484375,-427.734375,104.4921875,27.83203125
1510194888.9972937,38.0859375,-970.21484375,-272.94921875,65.91796875,-22.94921875
1510194889.0012,-3.41796875,-970.21484375,-561.03515625,-53.7109375,6.34765625
1510194889.0051062,-9.765625,-970.21484375,-822.75390625,-58.10546875,-17.08984375
1510194889.0090125,6.8359375,-970.21484375,-472.65625,64.453125,51.26953125
1510194889.0129187,-14.6484375,-970.21484375,-260.25390625,109.375,86.42578125
1510194889.016825,0.9765625,-970.21484375,-613.76953125,-12.6953125,27.34375
1510194889.0207312,44.43359375,-970.21484375,-982.421875,-105.95703125,6.34765625
1510194889.0246375,25.87890625,-970.21484375,-680.17578125,-2.44140625,19.53125
1510194889.0285437,38.57421875,-970.21484375,-153.80859375,119.62890625,61.5234375
1510194889.03245,53.22265625,-970.21484375,-316.89453125,39.0625,58.59375
1510194889.0363562,30.2734375,-970.21484375,-647.94921875,-85.44921875,36.62109375
1510194889.0379193,25.87890625,-970.21484375,-605.46875,-29.78515625,-13.671875
1510194889.0418255,-16.11328125,-970.21484375,-294.921875,98.6328125,2.44140625
1510194889.0457318,-44.921875,-970.21484375,-306.15234375,29.296875,54.6875
1510194889.049638,22.4609375,-970.21484375,-630.37109375,-87.40234375,42.96875
1510194889.0535443,26.85546875,-970.21484375,-703.125,-49.31640625,23.4375
1510194889.0574505,5.37109375,-970.21484375,-524.4140625,91.30859375,8.30078125
1510194889.0613568,34.1796875,-970.21484375,-604.4921875,70.80078125,10.7421875
1510194889.065263,37.59765625,-970.21484375,-848.14453125,-82.51953125,45.41015625
1510194889.0691693,43.45703125,-970.21484375,-833.49609375,-113.76953125,41.50390625
1510194889.0730755,18.5546875,-970.21484375,-568.84765625,20.99609375,46.38671875
1510194889.0769818,-5.859375,-970.21484375,-295.8984375,110.3515625,83.984375
1510194889.080888,19.53125,-970.21484375,-459.9609375,-9.27734375,60.05859375
1510194889.0834498,15.13671875,-970.21484375,-625.48828125,-86.42578125,50.78125
1510194889.087356,35.15625,-970.21484375,-551.7578125,44.921875,-1.953125
1510194889.0912623,35.15625,-970.21484375,-261.23046875,151.3671875,2.44140625
1510194889.0951686,22.4609375,-970.21484375,-200.68359375,50.78125,3.41796875
1510194889.0990748,35.15625,-970.21484375,-385.25390625,-60.546875,13.18359375
1510194889.102981,25.87890625,-970.21484375,-498.046875,-14.6484375,44.921875
1510194889.1068873,-8.7890625,-970.21484375,-282.2265625,112.3046875,31.73828125
1510194889.1107936,-10.25390625,-970.21484375,49.31640625,98.14453125,70.3125
1510194889.1146998,24.4140625,-970.21484375,-85.44921875,-16.6015625,46.875
1510194889.118606,56.640625,-970.21484375,-349.12109375,-12.6953125,33.69140625
1510194889.1225123,31.73828125,-970.21484375,-157.2265625,120.1171875,62.5
1510194889.1264186,14.16015625,-970.703125,112.79296875,126.46484375,-6.8359375
1510194889.1429935,32.2265625,-968.26171875,-82.03125,-18.06640625,-0.48828125
1510194889.1468997,6.34765625,-973.14453125,-258.30078125,-33.69140625,39.55078125
1510194889.150806,13.18359375,-962.40234375,-54.6875,93.26171875,30.2734375
1510194889.1547122,40.52734375,-915.0390625,291.015625,147.4609375,42.96875
1510194889.1586185,32.2265625,-937.01171875,156.25,32.2265625,50.78125
1510194889.1625247,31.25,-971.19140625,-275.87890625,-62.01171875,24.4140625
1510194889.166431,20.01953125,-979.98046875,-252.9296875,27.83203125,22.4609375
1510194889.1703372,13.671875,-916.015625,197.265625,145.01953125,41.9921875
1510194889.1742435,-12.6953125,-905.2734375,258.7890625,57.6171875,83.0078125
1510194889.1781497,-12.20703125,-977.5390625,-312.01171875,-68.359375,68.359375
1510194889.182056,55.6640625,-969.23828125,-465.33203125,-14.6484375,20.01953125
1510194889.1859622,66.89453125,-968.75,60.05859375,110.83984375,13.671875
1510194889.1880255,42.96875,-970.21484375,101.07421875,70.3125,3.90625
1510194889.1919317,42.96875,-970.21484375,-222.65625,-50.78125,42.48046875
1510194889.195838,-0.48828125,-970.21484375,-409.66796875,-62.01171875,69.82421875
1510194889.1997442,-48.828125,-970.21484375,-290.52734375,59.5703125,-29.296875
1510194889.2036505,4.8828125,-970.21484375,-86.42578125,95.703125,-25.87890625
1510194889.2075567,52.734375,-970.21484375,-394.53125,-9.27734375,18.5546875
1510194889.211463,36.1328125,-970.21484375,-643.5546875,-59.5703125,15.625
1510194889.2153692,45.41015625,-970.21484375,-316.89453125,54.6875,52.24609375
1510194889.2192755,6.34765625,-970.21484375,-149.4140625,136.23046875,22.4609375
1510194889.2231817,7.32421875,-969.7265625,-495.60546875,9.765625,41.015625
1510194889.227088,55.17578125,-970.703125,-590.33203125,-76.171875,48.33984375
1510194889.2309942,13.671875,-969.7265625,-323.2421875,52.24609375,38.0859375
1510194889.233056,-0.9765625,-966.796875,-29.296875,175.78125,50.78125
1510194889.2369623,31.73828125,-964.84375,-15.625,112.3046875,-9.765625
1510194889.2408686,54.6875,-971.6796875,-149.90234375,4.39453125,-3.90625
1510194889.2447748,65.4296875,-954.58984375,-118.65234375,36.1328125,10.7421875
1510194889.248681,22.94921875,-785.64453125,153.3203125,191.40625,-32.71484375
1510194889.2525873,26.85546875,-618.65234375,321.77734375,196.2890625,10.25390625
1510194889.2564936,69.82421875,-689.94140625,157.71484375,76.171875,26.3671875
1510194889.2603998,48.828125,-662.59765625,93.75,61.5234375,41.9921875
1510194889.264306,47.36328125,-580.56640625,239.74609375,182.12890625,53.7109375
1510194889.2682123,55.17578125,-319.82421875,521.97265625,200.68359375,64.453125
1510194889.2721186,44.43359375,-47.36328125,645.99609375,80.56640625,47.8515625
1510194889.2760248,51.7578125,-229.98046875,392.08984375,31.25,-12.20703125
1510194889.2779934,42.48046875,-122.55859375,520.99609375,161.1328125,15.13671875
1510194889.2818997,15.13671875,291.9921875,950.68359375,251.46484375,60.05859375
1510194889.285806,45.41015625,320.3125,933.59375,125.9765625,46.875
1510194889.2897122,60.05859375,-2.44140625,541.9921875,15.625,7.8125
1510194889.2936184,65.4296875,0.9765625,524.4140625,97.16796875,26.85546875
1510194889.2975247,71.2890625,264.6484375,844.7265625,214.35546875,56.15234375
1510194889.301431,41.9921875,336.42578125,904.296875,142.08984375,95.21484375
1510194889.3053372,23.4375,8.7890625,510.7421875,7.8125,10.7421875
1510194889.3092434,35.15625,-352.5390625,162.59765625,14.16015625,-21.484375
1510194889.3131497,-25.390625,50.78125,587.890625,160.15625,5.859375
1510194889.317056,-68.84765625,413.57421875,960.9375,172.8515625,6.34765625
1510194889.3209622,8.30078125,-49.8046875,505.37109375,15.13671875,-7.8125
1510194889.3230457,54.6875,-358.3984375,168.45703125,-44.43359375,13.671875
1510194889.326952,24.4140625,9.27734375,546.875,92.7734375,71.77734375
1510194889.3308582,2.9296875,164.0625,774.90234375,134.765625,56.15234375
1510194889.3347645,11.71875,-149.90234375,443.359375,-19.53125,52.734375
1510194889.3386707,14.6484375,-478.02734375,68.84765625,-92.28515625,52.734375
1510194889.342577,-25.390625,-524.4140625,70.80078125,28.3203125,43.45703125
1510194889.3464832,-26.3671875,-411.62109375,318.359375,127.44140625,78.125
1510194889.3503895,-20.5078125,-676.26953125,28.3203125,5.859375,63.4765625
1510194889.3542957,-40.52734375,-973.14453125,-377.44140625,-110.3515625,50.29296875
1510194889.358202,-25.87890625,-778.3203125,-132.8125,-46.38671875,63.96484375
1510194889.3621082,1.46484375,-590.8203125,164.0625,107.91015625,21.97265625
1510194889.3660145,12.6953125,-776.85546875,45.8984375,64.94140625,31.73828125
1510194889.3680568,11.71875,-980.46875,-319.3359375,-93.75,52.734375
1510194889.371963,8.7890625,-964.35546875,-431.15234375,-84.47265625,-1.46484375
1510194889.3758693,15.625,-967.28515625,-284.66796875,54.19921875,-47.8515625
1510194889.3797755,0.9765625,-970.703125,-151.85546875,63.96484375,3.41796875
1510194889.3836818,-29.78515625,-970.21484375,-375.9765625,-62.5,-10.7421875
1510194889.387588,8.30078125,-970.21484375,-726.5625,-109.86328125,-52.24609375
1510194889.3914943,6.34765625,-970.21484375,-617.1875,25.87890625,-17.578125
1510194889.3954005,-19.04296875,-970.21484375,-462.890625,105.46875,-21.484375
1510194889.3993068,-0.48828125,-970.21484375,-496.09375,-16.11328125,-43.9453125
1510194889.403213,22.94921875,-967.28515625,-540.0390625,-93.75,17.578125
1510194889.4071193,39.0625,-979.00390625,-504.8828125,42.48046875,26.85546875
1510194889.4110255,-13.18359375,-933.59375,-197.265625,156.73828125,4.8828125
1510194889.4131103,-48.33984375,-917.96875,-108.3984375,18.06640625,75.68359375
1510194889.4170165,47.36328125,-974.12109375,-450.1953125,-85.9375,54.6875
1510194889.4209228,78.61328125,-970.703125,-616.69921875,13.18359375,50.29296875
1510194889.424829,42.48046875,-968.75,-390.625,154.296875,24.4140625
1510194889.4287353,49.31640625,-970.21484375,-213.8671875,109.86328125,20.99609375
1510194889.4326415,37.59765625,-970.21484375,-637.20703125,-47.36328125,-52.734375
1510194889.4365478,45.8984375,-970.21484375,-1000.0,-51.7578125,-78.61328125
1510194889.440454,31.25,-970.21484375,-738.28125,89.84375,35.64453125
1510194889.4443603,-58.59375,-970.21484375,-311.5234375,115.72265625,-5.859375
1510194889.4482665,-11.71875,-970.21484375,-510.7421875,17.578125,-8.30078125
1510194889.4521728,80.078125,-970.21484375,-883.30078125,-47.36328125,8.7890625
1510194889.456079,78.61328125,-970.21484375,-703.61328125,61.5234375,25.390625
1510194889.458123,66.40625,-970.21484375,-375.0,149.90234375,43.45703125
1510194889.4620292,55.17578125,-970.21484375,-615.72265625,13.18359375,8.7890625
1510194889.4659355,54.19921875,-970.21484375,-975.5859375,-80.56640625,7.32421875
1510194889.4698417,28.3203125,-970.21484375,-890.13671875,21.484375,-2.9296875
1510194889.473748,17.578125,-970.21484375,-507.32421875,159.1796875,-6.34765625
1510194889.4776542,41.9921875,-970.21484375,-606.4453125,67.3828125,44.921875
1510194889.4815605,37.59765625,-970.21484375,-978.515625,-81.54296875,3.90625
1510194889.4854667,28.3203125,-970.21484375,-938.4765625,-14.16015625,-49.31640625
1510194889.489373,40.52734375,-970.21484375,-552.734375,153.3203125,-5.859375
1510194889.4932792,80.078125,-970.21484375,-456.0546875,126.953125,-3.90625
1510194889.4971855,73.2421875,-970.21484375,-733.88671875,-6.8359375,36.1328125
1510194889.5010917,45.41015625,-970.21484375,-828.61328125,-13.18359375,80.078125
1510194889.517827,52.734375,-970.21484375,-500.48828125,102.05078125,71.2890625
1510194889.5217333,43.9453125,-970.21484375,-271.97265625,156.25,33.203125
1510194889.5256395,-3.41796875,-970.21484375,-507.32421875,23.4375,3.90625
1510194889.5295458,-0.9765625,-970.21484375,-697.75390625,-41.9921875,5.37109375
1510194889.533452,67.87109375,-970.21484375,-495.1171875,89.35546875,6.8359375
1510194889.5373583,83.984375,-970.21484375,-232.421875,159.66796875,31.25
1510194889.5412645,62.98828125,-970.21484375,-325.68359375,42.48046875,72.75390625
1510194889.5451708,35.64453125,-970.21484375,-481.4453125,-61.5234375,75.1953125
1510194889.549077,29.296875,-970.21484375,-347.65625,33.203125,63.4765625
1510194889.5529833,38.0859375,-970.21484375,-231.4453125,171.38671875,22.4609375
1510194889.5568895,27.34375,-970.703125,-206.0546875,99.609375,16.6015625
1510194889.5607958,18.5546875,-960.44921875,-264.16015625,0.0,-22.4609375
1510194889.5628617,15.625,-991.69921875,-346.6796875,40.0390625,-10.7421875
1510194889.566768,43.45703125,-866.2109375,-3.41796875,167.96875,55.17578125
1510194889.5706742,46.875,-680.17578125,246.58203125,150.87890625,28.3203125
1510194889.5745804,28.80859375,-780.2734375,75.1953125,6.8359375,57.6171875
1510194889.5784867,36.1328125,-933.59375,-156.73828125,-26.3671875,97.16796875
1510194889.582393,22.94921875,-903.80859375,-60.546875,111.81640625,42.48046875
1510194889.5862992,7.32421875,-687.01171875,277.34375,167.96875,74.21875
1510194889.5902054,-7.32421875,-625.9765625,302.24609375,36.1328125,112.79296875
1510194889.5941117,9.765625,-867.67578125,-62.98828125,-30.2734375,40.52734375
1510194889.598018,53.22265625,-937.01171875,-190.4296875,85.9375,-13.18359375
1510194889.6019242,33.69140625,-480.95703125,422.36328125,166.50390625,61.03515625
1510194889.6058304,10.7421875,-385.25390625,551.7578125,50.78125,61.03515625
1510194889.6078913,20.01953125,-829.58984375,52.24609375,-36.62109375,-6.8359375
1510194889.6117976,3.90625,-761.71875,112.79296875,54.19921875,32.2265625
1510194889.6157038,12.20703125,-337.890625,592.28515625,176.26953125,28.3203125
1510194889.61961,58.10546875,-263.671875,690.4296875,99.12109375,19.04296875
1510194889.6235163,14.6484375,-531.25,372.0703125,-23.92578125,76.66015625
1510194889.6274226,-7.32421875,-787.59765625,105.46875,15.13671875,53.7109375
1510194889.6313288,58.59375,-562.5,385.7421875,157.2265625,18.5546875
1510194889.635235,24.4140625,-177.24609375,802.734375,152.83203125,75.1953125
1510194889.6391413,4.39453125,-606.4453125,314.453125,-15.13671875,62.01171875
1510194889.6430476,51.7578125,-920.8984375,-91.30859375,-67.3828125,61.03515625
1510194889.6469538,36.1328125,-426.26953125,432.12890625,85.44921875,63.4765625
1510194889.65086,43.45703125,-194.82421875,738.76953125,158.203125,22.94921875
1510194889.6529446,46.38671875,-491.2109375,416.50390625,32.71484375,-19.04296875
1510194889.6568508,-2.9296875,-666.015625,142.578125,-68.84765625,30.76171875
1510194889.660757,-9.765625,-519.53125,282.71484375,47.8515625,63.4765625
1510194889.6646633,31.25,-403.3203125,494.140625,169.43359375,58.59375
1510194889.6685696,42.96875,-485.83984375,416.015625,57.12890625,78.125
1510194889.6724758,19.53125,-858.88671875,-47.8515625,-56.640625,-24.4140625
1510194889.676382,13.18359375,-881.34765625,-94.23828125,-13.18359375,-20.5078125
1510194889.6802883,21.97265625,-533.69140625,354.4921875,133.7890625,83.0078125
1510194889.6841946,-20.5078125,-735.83984375,221.6796875,100.5859375,63.4765625
1510194889.6881008,-20.01953125,-853.515625,-14.16015625,-60.05859375,23.92578125
1510194889.692007,32.71484375,-740.234375,15.625,-57.6171875,53.22265625
1510194889.6959133,60.546875,-609.375,237.79296875,116.69921875,61.03515625
1510194889.6979551,70.3125,-442.3828125,463.8671875,118.65234375,59.08203125
1510194889.7018614,42.48046875,-549.31640625,286.62109375,-42.96875,77.63671875
1510194889.7057676,10.7421875,-802.734375,-8.7890625,-37.109375,54.19921875
1510194889.709674,18.5546875,-734.375,126.46484375,103.515625,42.48046875
1510194889.7135801,31.25,-482.421875,460.9375,182.12890625,41.9921875
1510194889.7174864,19.53125,-664.55078125,282.71484375,49.31640625,39.55078125
1510194889.7213926,1.953125,-942.87109375,-97.16796875,-65.4296875,40.52734375
1510194889.725299,45.8984375,-1000.0,-237.79296875,19.53125,-5.859375
1510194889.7292051,56.640625,-801.7578125,100.09765625,138.18359375,-7.8125
1510194889.7331114,0.0,-515.13671875,443.359375,67.3828125,38.57421875
1510194889.7370176,2.9296875,-762.20703125,118.1640625,-53.22265625,14.16015625
1510194889.740924,30.76171875,-956.0546875,-94.7265625,12.20703125,-44.921875
1510194889.7429883,48.33984375,-604.4921875,311.03515625,145.99609375,-30.76171875
1510194889.7468946,29.78515625,-400.87890625,523.4375,135.7421875,-38.57421875
1510194889.7508008,-3.41796875,-714.35546875,145.01953125,1.953125,-39.55078125
1510194889.754707,18.5546875,-937.98828125,-126.46484375,-51.7578125,-6.8359375
1510194889.7586133,41.9921875,-608.88671875,223.6328125,103.515625,4.8828125
1510194889.7625196,47.36328125,-431.640625,505.37109375,181.640625,25.390625
1510194889.7664258,40.0390625,-752.44140625,149.90234375,11.71875,24.90234375
1510194889.770332,0.9765625,-1000.0,-317.3828125,-91.796875,43.9453125
1510194889.7742383,14.16015625,-786.1328125,-27.83203125,41.015625,25.87890625
1510194889.7781446,62.5,-447.75390625,491.2109375,152.34375,19.53125
1510194889.7820508,48.828125,-606.4453125,324.21875,44.43359375,41.9921875
1510194889.785957,-6.34765625,-932.6171875,-70.3125,-67.87109375,-7.8125
1510194889.7880194,-15.13671875,-818.84765625,20.01953125,16.6015625,-13.18359375
1510194889.7919257,35.64453125,-409.1796875,492.1875,165.0390625,79.58984375
1510194889.795832,14.16015625,-497.55859375,430.6640625,62.01171875,57.12890625
1510194889.7997382,-16.6015625,-806.640625,56.640625,-78.61328125,52.24609375
1510194889.8036444,41.015625,-853.02734375,-23.4375,-19.53125,19.53125
1510194889.8075507,51.7578125,-704.58984375,228.02734375,123.53515625,-25.87890625
1510194889.811457,38.0859375,-745.60546875,260.7421875,124.51171875,35.15625
1510194889.8153632,22.94921875,-968.26171875,-75.1953125,-40.0390625,20.5078125
1510194889.8192694,-4.39453125,-853.515625,-25.390625,-83.0078125,15.625
1510194889.8231757,1.46484375,-520.01953125,382.8125,104.98046875,71.2890625
1510194889.827082,27.83203125,-308.10546875,681.15234375,185.546875,89.84375
1510194889.8309882,32.2265625,-472.16796875,478.515625,0.48828125,43.9453125
1510194889.8330534,0.48828125,-803.22265625,86.9140625,-89.84375,-15.625
1510194889.8369596,13.18359375,-729.98046875,200.1953125,65.91796875,21.97265625
1510194889.8408659,37.59765625,-333.984375,659.66796875,190.91796875,62.01171875
1510194889.844772,18.06640625,-308.10546875,657.2265625,89.84375,42.96875
1510194889.8486784,29.296875,-564.94140625,339.35546875,-35.15625,32.2265625
1510194889.8525846,53.22265625,-729.00390625,227.05078125,36.62109375,37.109375
1510194889.8564909,24.4140625,-682.6171875,425.78125,183.59375,57.6171875
1510194889.860397,9.27734375,-392.08984375,713.8671875,105.46875,88.8671875
1510194889.8643034,0.0,-432.12890625,580.56640625,-35.15625,74.70703125
1510194889.8682096,-5.859375,-753.41796875,261.71875,-19.53125,12.20703125
1510194889.8721159,58.10546875,-504.8828125,555.17578125,131.34765625,18.5546875
1510194889.876022,75.1953125,-221.19140625,854.4921875,166.015625,-0.48828125
1510194889.8930948,26.3671875,-452.63671875,568.84765625,3.90625,1.46484375
1510194889.897001,9.27734375,-819.3359375,151.85546875,-68.359375,64.94140625
1510194889.9009073,29.78515625,-858.3984375,166.9921875,29.78515625,55.6640625
1510194889.9048135,29.296875,-796.38671875,363.76953125,92.28515625,56.15234375
1510194889.9087198,-34.1796875,-978.515625,-8.7890625,-51.7578125,39.0625
1510194889.912626,-37.109375,-972.65625,-652.34375,-176.26953125,7.32421875
1510194889.9165323,14.16015625,-965.33203125,-729.00390625,-36.62109375,-38.57421875
1510194889.9204385,15.625,-971.19140625,-136.23046875,120.1171875,-27.83203125
1510194889.9243448,-12.6953125,-970.21484375,-109.86328125,8.30078125,-5.37109375
1510194889.928251,3.90625,-970.21484375,-764.16015625,-163.0859375,10.25390625
1510194889.9321573,2.44140625,-970.21484375,-846.6796875,-96.19140625,87.890625
1510194889.9360635,-9.27734375,-970.21484375,-288.57421875,133.30078125,40.0390625
1510194889.938126,21.97265625,-970.21484375,-126.953125,106.93359375,-2.44140625
1510194889.9420323,-15.625,-970.21484375,-704.1015625,-100.09765625,13.18359375
1510194889.9459386,-14.6484375,-970.21484375,-945.80078125,-123.046875,7.32421875
1510194889.9498448,52.24609375,-970.21484375,-311.5234375,84.9609375,49.8046875
1510194889.953751,38.0859375,-970.21484375,22.4609375,138.18359375,47.8515625
1510194889.9576573,-12.20703125,-970.21484375,-431.640625,-52.734375,63.96484375
1510194889.9615636,-16.6015625,-970.21484375,-875.9765625,-139.16015625,59.5703125
1510194889.9654698,-2.44140625,-970.21484375,-511.23046875,41.015625,29.78515625
1510194889.969376,5.37109375,-969.7265625,5.859375,156.73828125,35.15625
1510194889.9732823,5.37109375,-970.21484375,-374.51171875,-12.6953125,46.875
1510194889.9771886,-27.83203125,-970.21484375,-718.75,-158.203125,36.62109375
1510194889.9810948,-27.83203125,-970.21484375,-484.375,-16.6015625,-9.765625
1510194889.9831595,9.765625,-970.21484375,-46.875,165.52734375,-44.43359375
1510194889.9870658,0.48828125,-970.703125,-12.6953125,85.9375,-25.390625
1510194889.990972,22.4609375,-967.7734375,-377.9296875,-58.10546875,22.4609375
1510194889.9948783,34.1796875,-977.05078125,-481.4453125,-17.08984375,24.90234375
1510194889.9987845,5.37109375,-946.77734375,-54.19921875,160.15625,3.90625
1510194890.0026908,12.6953125,-929.6875,136.23046875,122.55859375,28.80859375
1510194890.006597,12.6953125,-971.6796875,-317.87109375,-70.3125,5.37109375
1510194890.0105033,-13.18359375,-971.19140625,-492.67578125,-90.33203125,12.6953125
1510194890.0144095,-22.94921875,-970.21484375,-223.6328125,104.98046875,49.31640625
1510194890.0183158,-26.3671875,-963.8671875,35.64453125,149.4140625,71.2890625
1510194890.022222,-5.37109375,-952.63671875,-44.43359375,-32.71484375,62.98828125
1510194890.0261283,50.29296875,-990.72265625,-463.8671875,-127.9296875,-16.6015625
1510194890.0281901,34.66796875,-897.94921875,-246.09375,46.875,27.83203125
1510194890.0320964,-1.953125,-659.1796875,360.3515625,179.6875,76.171875
1510194890.0360026,-11.71875,-795.41015625,218.26171875,25.390625,28.80859375
1510194890.039909,-34.1796875,-987.3046875,-375.9765625,-124.0234375,7.8125
1510194890.0438151,-17.08984375,-975.09765625,-438.4765625,-30.2734375,-12.20703125
1510194890.0477214,8.30078125,-881.34765625,53.7109375,150.87890625,-6.8359375
1510194890.0516276,-22.4609375,-851.07421875,201.66015625,58.10546875,51.7578125
1510194890.055534,-28.80859375,-953.125,-317.87109375,-119.140625,39.0625
1510194890.0594401,1.46484375,-1000.0,-756.8359375,-33.69140625,6.8359375
1510194890.0633464,40.52734375,-774.4140625,-101.5625,169.43359375,45.41015625
1510194890.0672526,30.2734375,-593.75,390.625,137.6953125,34.1796875
1510194890.071159,-11.23046875,-863.76953125,-133.30078125,-60.546875,-6.34765625
1510194890.0727232,-17.08984375,-1000.0,-598.14453125,-102.5390625,-12.6953125
1510194890.0766294,-19.53125,-865.72265625,-208.0078125,83.984375,4.39453125
1510194890.0805357,-40.52734375,-598.6328125,352.5390625,151.3671875,15.625
1510194890.084442,-35.64453125,-764.6484375,81.54296875,-35.15625,53.22265625
1510194890.0883482,-29.78515625,-1000.0,-378.41796875,-146.484375,60.546875
1510194890.0922544,12.6953125,-915.52734375,-213.8671875,-8.7890625,41.9921875
1510194890.0961607,33.203125,-728.02734375,284.1796875,124.0234375,23.92578125
1510194890.100067,-3.41796875,-814.94140625,51.26953125,9.27734375,5.859375
1510194890.1039732,-30.2734375,-999.51171875,-457.03125,-124.51171875,9.765625
1510194890.1078794,0.0,-929.19921875,-146.484375,-3.90625,39.0625
1510194890.1117857,11.71875,-527.83203125,460.44921875,173.828125,63.96484375
1510194890.115692,-15.13671875,-478.515625,511.23046875,66.89453125,49.31640625
1510194890.1177535,-45.41015625,-867.67578125,5.859375,-106.93359375,-12.6953125
1510194890.1216598,-43.45703125,-989.2578125,-189.94140625,-65.4296875,-15.13671875
1510194890.125566,-32.2265625,-685.05859375,234.375,128.90625,0.9765625
1510194890.1294723,-23.4375,-479.4921875,508.7890625,125.9765625,57.6171875
1510194890.1333785,-20.99609375,-778.80859375,147.4609375,-68.84765625,58.10546875
1510194890.1372848,-29.296875,-1000.0,-241.2109375,-124.51171875,4.8828125
1510194890.141191,20.01953125,-846.6796875,51.26953125,74.70703125,31.25
1510194890.1450973,40.0390625,-665.52734375,425.29296875,180.17578125,43.9453125
1510194890.1490035,-8.7890625,-676.7578125,322.265625,-21.97265625,16.6015625
1510194890.1529098,-27.34375,-798.33984375,103.515625,-145.01953125,58.59375
1510194890.156816,11.71875,-715.8203125,224.609375,28.80859375,116.2109375
1510194890.1607223,30.76171875,-337.40234375,671.875,173.33984375,28.80859375
1510194890.1628058,0.0,-333.49609375,649.90234375,32.71484375,-31.25
1510194890.166712,-44.921875,-730.95703125,185.05859375,-133.30078125,19.04296875
1510194890.1706183,-12.6953125,-875.0,46.38671875,-45.8984375,44.43359375
1510194890.1745245,24.90234375,-436.5234375,545.8984375,155.76171875,37.109375
1510194890.1784308,-3.90625,-220.703125,785.15625,84.47265625,19.04296875
1510194890.182337,-40.52734375,-719.23828125,267.08984375,-107.421875,23.4375
1510194890.1862433,-8.30078125,-1000.0,-209.47265625,-110.83984375,51.7578125
1510194890.1901495,40.0390625,-751.46484375,161.1328125,90.8203125,-3.90625
1510194890.1940558,27.34375,-220.703125,859.86328125,153.80859375,-7.8125
1510194890.197962,-6.34765625,-432.12890625,611.81640625,-10.7421875,20.5078125
1510194890.2018683,-19.04296875,-941.89453125,83.49609375,-92.7734375,-4.39453125
1510194890.2057745,20.5078125,-620.1171875,423.828125,47.8515625,62.5
1510194890.2083187,55.17578125,-93.75,976.5625,176.26953125,56.15234375
1510194890.212225,21.484375,-350.09765625,703.125,24.90234375,24.4140625
1510194890.2161312,1.953125,-885.7421875,121.09375,-119.62890625,22.94921875
1510194890.2200375,12.6953125,-757.8125,221.6796875,12.20703125,14.16015625
1510194890.2239437,19.53125,-240.234375,778.80859375,146.97265625,16.6015625
1510194890.22785,4.39453125,-439.94140625,627.44140625,20.99609375,13.671875
1510194890.2317562,16.11328125,-965.33203125,-145.01953125,-116.69921875,13.18359375
1510194890.2356625,1.46484375,-907.71484375,-142.08984375,-23.92578125,16.11328125
1510194890.2395687,-1.46484375,-372.55859375,602.5390625,172.36328125,41.50390625
1510194890.243475,31.73828125,-312.98828125,705.56640625,137.20703125,16.6015625
1510194890.2473812,28.3203125,-821.2890625,163.0859375,-65.4296875,-21.97265625
1510194890.2512875,23.92578125,-937.98828125,-26.85546875,-93.75,20.01953125
1510194890.2678592,13.18359375,-520.01953125,433.59375,98.6328125,68.359375
1510194890.2717655,43.9453125,-280.76171875,747.0703125,152.83203125,40.52734375
1510194890.2756717,41.50390625,-612.79296875,384.27734375,-30.2734375,22.94921875
1510194890.279578,9.27734375,-887.6953125,51.26953125,-108.88671875,62.98828125
1510194890.2834842,14.6484375,-711.9140625,271.97265625,69.82421875,30.76171875
1510194890.2873905,4.8828125,-486.81640625,593.26171875,189.453125,-37.109375
1510194890.2912967,15.13671875,-696.2890625,379.8828125,16.11328125,4.39453125
1510194890.295203,19.53125,-972.65625,-6.8359375,-133.7890625,29.78515625
1510194890.2991092,15.625,-855.46875,88.8671875,0.9765625,5.37109375
1510194890.3030155,31.73828125,-719.23828125,356.4453125,181.15234375,-9.27734375
1510194890.3069217,16.11328125,-715.8203125,353.02734375,68.84765625,5.859375
1510194890.310828,30.2734375,-780.2734375,158.69140625,-91.30859375,66.40625
1510194890.3128932,58.10546875,-996.09375,-54.6875,-3.90625,87.890625
1510194890.3167994,16.11328125,-708.49609375,309.08203125,183.10546875,58.10546875
1510194890.3207057,4.39453125,-367.1875,644.04296875,159.1796875,43.9453125
1510194890.324612,11.23046875,-688.96484375,269.04296875,-34.1796875,58.10546875
1510194890.3285182,9.765625,-1000.0,-188.4765625,-87.40234375,51.7578125
1510194890.3324244,25.390625,-880.859375,-45.8984375,101.5625,0.0
1510194890.3363307,41.9921875,-550.78125,415.52734375,180.6640625,3.90625
1510194890.340237,29.78515625,-668.9453125,302.734375,-4.39453125,31.25
1510194890.3441432,5.37109375,-997.0703125,-277.83203125,-99.12109375,-17.08984375
1510194890.3480494,3.90625,-935.546875,-336.42578125,54.6875,-42.96875
1510194890.3519557,20.5078125,-540.0390625,418.45703125,203.61328125,39.55078125
1510194890.355862,26.85546875,-575.68359375,497.55859375,78.125,63.96484375
1510194890.3579235,-17.08984375,-954.58984375,-94.7265625,-85.44921875,30.2734375
1510194890.3618298,0.48828125,-959.9609375,-133.7890625,6.34765625,9.27734375
1510194890.365736,40.0390625,-530.2734375,480.46875,194.3359375,39.55078125
1510194890.3696423,27.34375,-408.203125,629.39453125,119.62890625,65.4296875
1510194890.3735485,5.37109375,-855.46875,-1.46484375,-73.2421875,4.8828125
1510194890.3774548,-26.3671875,-1000.0,-316.40625,-42.48046875,-12.6953125
1510194890.381361,-19.53125,-775.390625,167.96875,151.3671875,9.765625
1510194890.3852673,40.52734375,-484.375,635.7421875,174.31640625,31.25
1510194890.3891735,43.45703125,-752.9296875,121.09375,-21.97265625,42.96875
1510194890.3930798,-6.34765625,-1000.0,-367.67578125,-81.0546875,47.36328125
1510194890.396986,1.46484375,-721.19140625,243.1640625,104.4921875,36.62109375
1510194890.4008923,39.55078125,-331.0546875,737.3046875,208.49609375,18.06640625
1510194890.4029577,65.91796875,-681.15234375,368.65234375,39.55078125,-20.99609375
1510194890.406864,14.6484375,-1000.0,-64.94140625,-92.28515625,9.27734375
1510194890.4107702,-39.0625,-848.14453125,109.86328125,41.015625,-1.953125
1510194890.4146764,31.25,-493.1640625,593.75,191.40625,-0.9765625
1510194890.4185827,28.80859375,-638.671875,502.9296875,63.4765625,11.23046875
1510194890.422489,-47.36328125,-969.7265625,-79.58984375,-111.328125,-17.578125
1510194890.4263952,-3.41796875,-958.0078125,-163.57421875,-18.06640625,-47.36328125
1510194890.4303014,67.3828125,-715.33203125,376.953125,181.640625,13.671875
1510194890.4342077,44.43359375,-798.33984375,363.76953125,103.515625,39.0625
1510194890.438114,-10.25390625,-975.09765625,27.34375,-88.8671875,17.578125
1510194890.4420202,-6.8359375,-980.46875,-26.3671875,-80.078125,45.8984375
1510194890.4459264,21.97265625,-732.421875,356.93359375,131.8359375,92.28515625
1510194890.447989,29.296875,-417.48046875,705.56640625,180.6640625,83.0078125
1510194890.4518952,10.7421875,-698.73046875,348.6328125,-9.765625,2.9296875
1510194890.4558015,-17.08984375,-1000.0,-94.23828125,-81.0546875,-4.8828125
1510194890.4597077,-31.25,-911.1328125,72.265625,80.56640625,-33.203125
1510194890.463614,-4.8828125,-497.0703125,617.1875,165.0390625,34.66796875
1510194890.4675202,22.4609375,-659.1796875,351.07421875,-0.48828125,20.01953125
1510194890.4714265,-8.30078125,-995.60546875,-146.97265625,-126.46484375,10.25390625
1510194890.4753327,4.8828125,-1000.0,-115.72265625,23.4375,97.65625
1510194890.479239,24.4140625,-767.578125,258.30078125,183.59375,60.05859375
1510194890.4831452,-1.953125,-581.54296875,504.39453125,57.6171875,33.69140625
1510194890.4870515,6.34765625,-925.29296875,-80.078125,-100.5859375,-3.41796875
1510194890.4909577,9.27734375,-994.140625,-246.58203125,-44.43359375,29.296875
1510194890.4930232,14.16015625,-573.2421875,410.64453125,163.57421875,80.56640625
1510194890.4969294,18.5546875,-412.109375,672.36328125,147.94921875,57.6171875
1510194890.5008357,-20.99609375,-810.546875,92.7734375,-74.21875,-4.39453125
1510194890.504742,-51.26953125,-1000.0,-300.29296875,-99.609375,22.94921875
1510194890.5086482,-22.4609375,-772.4609375,172.8515625,93.75,64.453125
1510194890.5125544,20.01953125,-672.36328125,468.75,140.13671875,18.5546875
1510194890.5164607,37.59765625,-916.015625,9.27734375,-15.625,16.11328125
1510194890.520367,30.76171875,-997.55859375,-591.796875,-122.55859375,19.04296875
1510194890.5242732,-2.44140625,-897.94921875,-258.7890625,29.78515625,-22.94921875
1510194890.5281794,-12.20703125,-610.83984375,476.07421875,201.171875,-22.4609375
1510194890.5320857,0.48828125,-732.421875,275.390625,37.59765625,34.1796875
1510194890.535992,-12.6953125,-999.0234375,-258.30078125,-133.7890625,42.48046875
1510194890.5380514,-1.953125,-947.265625,-172.8515625,5.859375,28.80859375
1510194890.5419576,20.5078125,-715.33203125,333.984375,200.68359375,53.7109375
1510194890.5458639,10.25390625,-759.765625,311.03515625,104.4921875,35.15625
1510194890.54977,9.765625,-984.86328125,-172.36328125,-69.3359375,15.625
1510194890.5536764,24.4140625,-981.4453125,-291.015625,-37.59765625,22.4609375
1510194890.5575826,22.4609375,-919.43359375,144.53125,164.0625,23.4375
1510194890.5614889,-5.859375,-897.94921875,226.5625,158.69140625,62.98828125
1510194890.565395,2.9296875,-969.7265625,-307.6171875,-53.22265625,44.921875
1510194890.5693014,27.34375,-985.3515625,-433.10546875,-75.68359375,8.7890625
1510194890.5732076,44.921875,-907.2265625,-22.94921875,119.62890625,9.27734375
1510194890.5771139,43.45703125,-832.51953125,324.21875,171.875,19.04296875
1510194890.58102,26.3671875,-928.22265625,64.94140625,-9.765625,53.22265625
1510194890.583086,-10.25390625,-972.16796875,-369.62890625,-83.984375,16.6015625
1510194890.5869923,-37.109375,-978.515625,-244.62890625,79.58984375,-11.23046875
1510194890.5908985,-6.8359375,-858.3984375,250.48828125,211.9140625,57.12890625
1510194890.5948048,20.01953125,-832.51953125,229.00390625,49.31640625,75.68359375
1510194890.598711,30.76171875,-974.609375,-283.203125,-110.3515625,34.1796875
1510194890.6026173,30.76171875,-978.515625,-395.01953125,20.99609375,22.4609375
1510194890.6065235,16.11328125,-952.63671875,-63.4765625,200.1953125,-15.625
1510194890.6104298,9.765625,-882.8125,196.2890625,106.4453125,-31.73828125
1510194890.614336,-4.39453125,-927.24609375,-18.06640625,-63.96484375,-7.8125
1510194890.6182423,-17.08984375,-1000.0,-296.38671875,-17.578125,6.8359375
1510194890.6221485,6.34765625,-736.328125,155.76171875,193.359375,19.04296875
1510194890.6260548,16.6015625,-468.26171875,593.75,187.98828125,56.15234375
1510194890.6431267,-20.5078125,-772.94921875,166.015625,-7.8125,17.08984375
1510194890.647033,-16.6015625,-1000.0,-327.63671875,-73.73046875,24.90234375
1510194890.6509392,18.06640625,-875.9765625,-46.38671875,81.0546875,22.4609375
1510194890.6548455,10.7421875,-642.578125,434.5703125,189.94140625,-29.78515625
1510194890.6587517,-12.20703125,-810.05859375,195.3125,21.484375,-32.2265625
1510194890.662658,-37.109375,-997.0703125,-521.484375,-99.609375,-6.8359375
1510194890.6665642,-13.671875,-951.171875,-495.1171875,64.453125,-6.34765625
1510194890.6704705,25.390625,-812.5,248.046875,209.47265625,11.71875
1510194890.6743767,38.0859375,-831.0546875,248.53515625,72.75390625,42.96875
1510194890.678283,16.11328125,-970.21484375,-370.1171875,-78.125,-23.4375
1510194890.6821892,-49.31640625,-994.62890625,-424.8046875,8.7890625,-5.37109375
1510194890.6860955,-11.23046875,-853.02734375,164.55078125,184.08203125,16.6015625
1510194890.6881583,33.203125,-805.17578125,307.12890625,113.28125,43.45703125
1510194890.6920645,2.9296875,-965.33203125,-234.86328125,-81.0546875,36.62109375
1510194890.6959708,-5.859375,-1000.0,-537.59765625,-61.5234375,-38.0859375
1510194890.699877,18.5546875,-848.14453125,14.16015625,152.83203125,41.9921875
1510194890.7037833,26.3671875,-800.78125,336.9140625,167.48046875,62.01171875
1510194890.7076895,-6.8359375,-974.12109375,-263.671875,-38.0859375,-34.1796875
1510194890.7115958,-12.6953125,-988.28125,-650.390625,-106.93359375,29.78515625
1510194890.715502,9.27734375,-907.2265625,-194.82421875,81.54296875,42.48046875
1510194890.7194083,0.0,-872.55859375,232.91015625,187.5,-10.7421875
1510194890.7233145,-18.5546875,-967.28515625,-189.453125,-2.9296875,14.6484375
1510194890.7272208,0.48828125,-978.515625,-535.15625,-130.37109375,64.453125
1510194890.731127,42.96875,-955.56640625,-267.08984375,41.50390625,53.7109375
1510194890.733047,37.109375,-877.44140625,264.16015625,209.47265625,20.5078125
1510194890.7369533,14.6484375,-905.76171875,313.4765625,75.1953125,43.9453125
1510194890.7408595,3.41796875,-974.609375,-70.80078125,-101.07421875,81.0546875
1510194890.7447658,12.6953125,-976.5625,-152.83203125,-12.6953125,73.2421875
1510194890.748672,5.37109375,-870.1171875,280.2734375,187.98828125,41.015625
1510194890.7525783,-5.37109375,-882.8125,366.2109375,135.25390625,-16.6015625
1510194890.7564845,-20.5078125,-982.91015625,-86.9140625,-55.17578125,19.53125
1510194890.7603908,-11.23046875,-962.890625,-243.65234375,-50.29296875,39.55078125
1510194890.764297,38.0859375,-984.375,-9.27734375,146.97265625,1.953125
1510194890.7682033,57.12890625,-897.94921875,261.71875,175.29296875,-15.625
1510194890.7721095,50.78125,-863.76953125,187.01171875,-2.9296875,-42.96875
1510194890.7760158,18.5546875,-1000.0,-238.28125,-68.84765625,-27.83203125
1510194890.778076,3.41796875,-857.421875,57.6171875,97.16796875,68.84765625
1510194890.7819822,18.5546875,-581.54296875,605.95703125,211.9140625,94.23828125
1510194890.7858884,-23.4375,-760.7421875,450.1953125,32.2265625,67.87109375
1510194890.7897947,-50.29296875,-986.81640625,-101.07421875,-133.7890625,28.3203125
1510194890.793701,-32.2265625,-960.9375,-163.57421875,8.7890625,-3.41796875
1510194890.7976072,-14.6484375,-839.84375,314.94140625,204.58984375,2.44140625
1510194890.8015134,33.69140625,-830.078125,440.4296875,103.515625,37.59765625
1510194890.8054197,23.4375,-945.3125,26.3671875,-66.40625,60.05859375
1510194890.809326,12.6953125,-1000.0,-377.9296875,-6.34765625,1.953125
1510194890.8132322,15.625,-779.78515625,209.9609375,178.22265625,-31.73828125
1510194890.8171384,-3.90625,-590.33203125,703.61328125,135.7421875,1.46484375
1510194890.8210447,-9.765625,-851.07421875,175.29296875,-54.6875,9.765625
1510194890.8231175,-15.625,-1000.0,-245.1171875,-87.890625,-19.04296875
1510194890.8270237,-7.32421875,-821.2890625,220.21484375,97.16796875,24.4140625
1510194890.83093,1.953125,-634.765625,628.90625,175.29296875,9.765625
1510194890.8348362,-20.99609375,-857.91015625,236.328125,-5.859375,5.859375
1510194890.8387425,-22.4609375,-995.1171875,-282.71484375,-107.421875,41.9921875
1510194890.8426487,37.59765625,-946.2890625,-146.484375,53.22265625,21.97265625
1510194890.846555,59.5703125,-841.30859375,420.8984375,196.2890625,43.9453125
1510194890.8504612,22.4609375,-885.25390625,160.64453125,45.41015625,43.45703125
1510194890.8543675,2.9296875,-988.28125,-434.08203125,-104.98046875,-7.32421875
1510194890.8582737,-5.859375,-953.61328125,-136.71875,13.671875,11.23046875
1510194890.86218,-13.18359375,-712.890625,453.125,203.61328125,13.18359375
1510194890.8660862,-20.01953125,-676.7578125,539.0625,103.515625,78.125
1510194890.8681407,-9.27734375,-911.1328125,111.328125,-96.19140625,124.0234375
1510194890.872047,-0.9765625,-995.60546875,-120.1171875,-61.5234375,62.01171875
1510194890.8759532,27.34375,-796.875,281.73828125,132.32421875,84.47265625
1510194890.8798594,44.43359375,-686.03515625,500.48828125,164.55078125,56.640625
1510194890.8837657,5.37109375,-885.7421875,119.62890625,-31.25,31.25
1510194890.887672,4.39453125,-982.91015625,-297.8515625,-68.359375,78.61328125
1510194890.8915782,17.08984375,-940.91796875,-68.84765625,136.23046875,79.1015625
1510194890.8954844,9.765625,-921.38671875,209.9609375,195.3125,30.2734375
1510194890.8993907,-2.44140625,-904.296875,112.3046875,9.27734375,58.10546875
1510194890.903297,-3.41796875,-967.28515625,-143.5546875,-76.66015625,41.50390625
1510194890.9072032,6.8359375,-966.796875,-62.98828125,67.3828125,48.33984375
1510194890.9111094,-2.44140625,-635.25390625,423.33984375,195.80078125,26.85546875
1510194890.9131722,8.7890625,-589.84375,420.8984375,80.56640625,1.46484375
1510194890.9170785,13.671875,-937.01171875,-71.2890625,-62.01171875,-5.859375
1510194890.9209847,34.1796875,-991.2109375,-199.70703125,29.78515625,-7.8125
1510194890.924891,42.96875,-597.65625,326.66015625,210.44921875,4.8828125
1510194890.9287972,45.41015625,-438.4765625,527.83203125,145.01953125,-22.4609375
1510194890.9327035,12.20703125,-836.9140625,25.390625,-26.85546875,17.578125
1510194890.9366097,-9.765625,-1000.0,-421.38671875,-23.92578125,80.078125
1510194890.940516,20.5078125,-818.359375,-140.625,140.625,-16.11328125
1510194890.9444222,23.92578125,-424.31640625,472.65625,191.40625,-18.5546875
1510194890.9483285,4.39453125,-617.67578125,211.9140625,-5.37109375,48.828125
1510194890.9522347,-15.13671875,-1000.0,-414.0625,-99.609375,13.18359375
1510194890.956141,2.9296875,-848.6328125,-182.6171875,91.30859375,18.06640625
1510194890.9582112,28.3203125,-433.10546875,406.25,202.63671875,-17.08984375
1510194890.9621174,9.765625,-563.96484375,219.23828125,23.4375,41.50390625
1510194890.9660237,5.37109375,-1000.0,-373.046875,-100.5859375,31.73828125
1510194890.96993,30.2734375,-879.39453125,-263.18359375,49.8046875,3.90625
1510194890.9738362,26.85546875,-427.734375,348.6328125,213.37890625,34.66796875
1510194890.9777424,-6.8359375,-597.65625,207.03125,93.75,30.76171875
1510194890.9816487,-16.11328125,-996.58203125,-536.62109375,-102.05078125,53.22265625
1510194890.985555,17.08984375,-939.94140625,-500.0,-27.34375,62.5
1510194890.9894612,30.2734375,-458.984375,271.97265625,169.43359375,76.66015625
1510194890.9933674,11.71875,-296.875,443.359375,112.3046875,87.40234375
1510194890.9972737,11.71875,-750.9765625,-59.5703125,-51.26953125,51.7578125
1510194891.00118,5.37109375,-949.70703125,-323.73046875,-57.6171875,5.859375
1510194891.0177464,21.97265625,-495.60546875,167.48046875,131.34765625,63.4765625
1510194891.0216527,21.97265625,-238.28125,498.53515625,185.546875,78.125
1510194891.025559,-3.90625,-578.125,125.48828125,-1.953125,91.796875
1510194891.0294652,6.34765625,-879.39453125,-257.8125,-66.40625,30.2734375
1510194891.0333714,23.92578125,-645.01953125,-3.41796875,106.4453125,-0.48828125
1510194891.0372777,28.3203125,-328.125,402.83203125,213.37890625,26.85546875
1510194891.041184,10.25390625,-564.94140625,156.73828125,56.640625,34.66796875
1510194891.0450902,-17.08984375,-839.35546875,-216.796875,-90.33203125,44.43359375
1510194891.0489964,-4.8828125,-659.1796875,-56.640625,37.59765625,41.9921875
1510194891.0529027,43.45703125,-459.9609375,267.08984375,211.42578125,54.19921875
1510194891.056809,61.5234375,-460.44921875,275.390625,113.28125,86.42578125
1510194891.0607152,25.390625,-576.66015625,33.203125,-49.31640625,91.796875
1510194891.0627985,22.4609375,-724.12109375,-129.39453125,-1.953125,98.6328125
1510194891.0667048,53.22265625,-399.4140625,267.08984375,187.5,65.91796875
1510194891.070611,29.78515625,-131.34765625,545.41015625,165.52734375,28.3203125
1510194891.0745173,3.90625,-440.4296875,169.921875,-31.73828125,38.57421875
1510194891.0784235,-23.92578125,-886.71875,-301.26953125,-92.28515625,-4.39453125
1510194891.0823298,-41.015625,-728.02734375,-84.9609375,92.7734375,-26.85546875
1510194891.086236,38.0859375,-353.02734375,330.078125,181.15234375,-2.44140625
1510194891.0901423,51.26953125,-449.21875,188.4765625,2.9296875,45.41015625
1510194891.0940485,26.85546875,-826.66015625,-307.12890625,-111.328125,16.11328125
1510194891.0979548,25.87890625,-911.62109375,-396.97265625,46.875,-20.5078125
1510194891.101861,34.66796875,-318.84765625,332.51953125,201.171875,38.0859375
1510194891.1057673,19.04296875,-210.9375,436.03515625,60.546875,41.50390625
1510194891.107813,-24.4140625,-749.51171875,-130.859375,-85.44921875,61.03515625
1510194891.1117191,-9.765625,-749.51171875,-115.72265625,14.6484375,92.28515625
1510194891.1156254,29.78515625,-240.72265625,441.89453125,187.98828125,30.76171875
1510194891.1195316,26.3671875,-182.6171875,518.06640625,102.05078125,-21.97265625
1510194891.123438,-16.11328125,-703.125,-45.41015625,-80.078125,-24.90234375
1510194891.1273441,-34.66796875,-992.67578125,-333.984375,-45.41015625,12.6953125
1510194891.1312504,2.9296875,-548.33984375,161.62109375,145.5078125,47.8515625
1510194891.1351566,18.5546875,-95.703125,649.90234375,182.6171875,79.58984375
1510194891.139063,35.15625,-589.84375,28.3203125,2.9296875,16.6015625
1510194891.1429691,33.69140625,-994.62890625,-489.74609375,-84.9609375,-10.25390625
1510194891.1468754,-4.8828125,-441.89453125,201.66015625,75.68359375,41.50390625
1510194891.1507816,3.90625,6.34765625,734.86328125,167.96875,63.96484375
1510194891.1528418,-0.48828125,-352.05078125,372.0703125,-16.11328125,50.29296875
1510194891.156748,-39.55078125,-810.546875,-132.32421875,-151.3671875,-10.25390625
1510194891.1606543,-20.99609375,-611.81640625,77.1484375,14.16015625,-8.30078125
1510194891.1645606,-2.44140625,-153.3203125,611.328125,172.8515625,48.828125
1510194891.1684668,-13.671875,-340.33203125,431.15234375,17.08984375,9.765625
1510194891.172373,-46.875,-846.6796875,-138.18359375,-141.11328125,9.27734375
1510194891.1762793,-53.7109375,-907.2265625,-212.40234375,-40.52734375,17.08984375
1510194891.1801856,-30.2734375,-512.20703125,248.046875,137.20703125,1.46484375
1510194891.1840918,-38.57421875,-582.51953125,223.6328125,57.6171875,20.99609375
1510194891.187998,-41.015625,-809.08203125,-125.48828125,-142.08984375,21.484375
1510194891.1919043,-29.296875,-813.4765625,-206.0546875,-114.74609375,74.70703125
1510194891.1958106,0.0,-581.54296875,103.515625,91.30859375,96.19140625
1510194891.1978738,11.71875,-248.53515625,452.1484375,111.81640625,38.0859375
1510194891.20178,-23.4375,-489.74609375,138.671875,-73.2421875,8.30078125
1510194891.2056863,-20.99609375,-884.765625,-297.8515625,-128.90625,9.27734375
1510194891.2095926,21.97265625,-691.89453125,-50.29296875,68.359375,44.921875
1510194891.2134988,16.6015625,-305.6640625,402.83203125,177.734375,8.30078125
1510194891.217405,-7.32421875,-604.98046875,105.95703125,-1.46484375,-34.1796875
1510194891.2213113,-9.765625,-965.8203125,-388.18359375,-113.28125,33.203125
1510194891.2252176,13.18359375,-1000.0,-453.125,23.92578125,21.97265625
1510194891.2291238,48.828125,-694.3359375,39.55078125,170.8984375,39.0625
1510194891.23303,59.08203125,-399.90234375,312.5,65.4296875,29.78515625
1510194891.2369363,36.62109375,-724.609375,-90.8203125,-90.33203125,69.3359375
1510194891.2408426,35.15625,-895.5078125,-246.58203125,-39.55078125,103.02734375
1510194891.2429078,50.29296875,-501.953125,200.1953125,150.390625,-20.01953125
1510194891.246814,34.1796875,-329.58984375,429.19921875,150.390625,-28.3203125
1510194891.2507203,-20.5078125,-820.80078125,-136.71875,-48.33984375,-29.296875
1510194891.2546265,-16.6015625,-1000.0,-434.5703125,-91.796875,-3.90625
1510194891.2585328,49.8046875,-568.359375,121.58203125,99.609375,73.73046875
1510194891.262439,32.2265625,-362.79296875,439.453125,148.4375,53.7109375
1510194891.2663453,28.3203125,-745.60546875,-4.8828125,-38.57421875,68.359375
1510194891.2702515,58.10546875,-1000.0,-622.0703125,-102.05078125,44.921875
1510194891.2741578,45.41015625,-797.8515625,-309.5703125,83.49609375,-30.2734375
1510194891.278064,20.5078125,-297.36328125,469.23828125,201.171875,12.20703125
1510194891.2819703,2.44140625,-512.6953125,245.60546875,36.1328125,59.5703125
1510194891.2858765,10.25390625,-993.1640625,-318.359375,-108.3984375,54.6875
1510194891.2879376,18.5546875,-891.6015625,-227.05078125,5.37109375,16.6015625
1510194891.291844,49.31640625,-431.640625,329.58984375,182.12890625,20.01953125
1510194891.2957501,46.38671875,-489.74609375,292.96875,104.4921875,27.83203125
1510194891.2996564,-1.46484375,-936.5234375,-272.4609375,-80.56640625,5.859375
1510194891.3035626,8.30078125,-986.328125,-397.4609375,-62.5,7.32421875
1510194891.307469,14.16015625,-731.93359375,14.16015625,123.046875,5.859375
1510194891.3113751,-9.27734375,-729.4921875,91.796875,90.8203125,92.28515625
1510194891.3152814,-4.8828125,-966.796875,-448.2421875,-113.76953125,56.15234375
1510194891.3191876,-2.9296875,-1000.0,-600.09765625,-112.79296875,-35.64453125
1510194891.323094,20.01953125,-763.671875,-57.12890625,88.8671875,63.4765625
1510194891.3270001,28.80859375,-530.76171875,299.8046875,163.57421875,47.8515625
1510194891.3309064,-16.11328125,-799.8046875,-19.53125,-2.44140625,8.7890625
1510194891.3329713,-29.296875,-997.55859375,-426.26953125,-111.328125,18.06640625
1510194891.3368776,6.8359375,-909.66796875,-277.83203125,37.59765625,10.25390625
1510194891.3407838,52.24609375,-645.5078125,206.0546875,151.85546875,64.453125
1510194891.34469,22.4609375,-725.09765625,98.6328125,-6.34765625,45.8984375
1510194891.3485963,-17.08984375,-980.46875,-377.44140625,-151.85546875,33.203125
1510194891.3525026,5.859375,-976.07421875,-475.09765625,-33.203125,71.77734375
1510194891.3564088,36.1328125,-952.63671875,-202.1484375,141.6015625,50.29296875
1510194891.360315,16.6015625,-886.71875,1.953125,44.921875,35.64453125
1510194891.3642213,-14.16015625,-929.19921875,-328.125,-110.3515625,23.92578125
1510194891.3681276,1.46484375,-1000.0,-568.84765625,-45.8984375,40.52734375
1510194891.3720338,29.296875,-770.99609375,-27.83203125,151.85546875,79.58984375
1510194891.37594,23.4375,-569.3359375,364.74609375,148.4375,74.70703125
1510194891.3930147,3.41796875,-854.98046875,-62.01171875,-47.8515625,55.17578125
1510194891.396921,13.18359375,-1000.0,-564.94140625,-102.5390625,34.1796875
1510194891.4008272,14.16015625,-885.7421875,-297.36328125,80.56640625,-21.484375
1510194891.4047334,6.8359375,-678.22265625,258.30078125,147.94921875,12.20703125
1510194891.4086397,6.8359375,-819.82421875,31.25,-34.66796875,34.1796875
1510194891.412546,0.48828125,-999.51171875,-715.33203125,-108.88671875,7.8125
1510194891.4164522,19.53125,-950.68359375,-687.5,50.78125,29.78515625
1510194891.4203584,46.875,-750.9765625,132.8125,186.5234375,23.4375
1510194891.4242647,37.109375,-793.45703125,154.78515625,46.875,10.25390625
1510194891.428171,30.2734375,-975.5859375,-429.6875,-92.7734375,20.5078125
1510194891.4320772,47.8515625,-992.67578125,-449.70703125,4.39453125,33.69140625
1510194891.4359834,43.9453125,-810.05859375,113.28125,169.921875,47.36328125
1510194891.4380448,29.296875,-736.328125,232.91015625,125.48828125,17.578125
1510194891.441951,18.5546875,-948.2421875,-290.52734375,-68.84765625,-5.859375
1510194891.4458573,-2.44140625,-1000.0,-533.203125,-59.5703125,-18.5546875
1510194891.4497635,13.18359375,-813.4765625,-25.87890625,155.76171875,-8.30078125
1510194891.4536698,23.92578125,-695.3125,304.19921875,151.85546875,21.484375
1510194891.457576,0.9765625,-928.7109375,-198.2421875,-33.69140625,41.015625
1510194891.4614823,12.20703125,-1000.0,-613.28125,-71.2890625,7.8125
1510194891.4653885,42.96875,-807.6171875,-124.0234375,83.49609375,45.8984375
1510194891.4692948,41.50390625,-647.4609375,346.19140625,162.109375,108.3984375
1510194891.473201,27.34375,-931.640625,-213.8671875,-15.625,29.296875
1510194891.4771073,-2.9296875,-1000.0,-559.5703125,-143.5546875,42.96875
1510194891.4810135,-4.39453125,-905.2734375,-211.9140625,22.4609375,73.73046875
1510194891.4830782,28.80859375,-721.19140625,215.33203125,189.94140625,30.76171875
1510194891.4869845,19.53125,-811.5234375,150.390625,69.3359375,-5.859375
1510194891.4908907,4.39453125,-978.02734375,-369.62890625,-83.984375,-35.15625
1510194891.494797,-3.41796875,-978.515625,-427.24609375,7.32421875,-27.34375
1510194891.4987032,22.4609375,-815.4296875,105.95703125,194.3359375,-3.90625
1510194891.5026095,28.3203125,-818.84765625,198.2421875,129.39453125,-2.44140625
1510194891.5065157,10.7421875,-982.91015625,-302.24609375,-54.19921875,-23.4375
1510194891.510422,22.4609375,-964.35546875,-408.203125,-43.9453125,23.4375
1510194891.5143282,49.8046875,-982.421875,-109.375,134.27734375,53.7109375
1510194891.5182345,52.734375,-895.99609375,92.7734375,178.22265625,-14.6484375
1510194891.5221407,35.15625,-857.91015625,18.5546875,16.6015625,-27.83203125
1510194891.526047,39.55078125,-1000.0,-332.51953125,-43.45703125,28.80859375
1510194891.528109,35.64453125,-885.25390625,-128.90625,134.765625,54.19921875
1510194891.5320153,31.25,-528.3203125,397.4609375,228.02734375,28.80859375
1510194891.5359216,37.109375,-641.11328125,283.69140625,65.91796875,56.15234375
1510194891.5398278,33.203125,-985.83984375,-256.8359375,-41.9921875,93.75
1510194891.543734,17.578125,-922.36328125,-277.34375,74.21875,101.5625
1510194891.5476403,16.6015625,-697.75390625,168.9453125,211.42578125,49.8046875
1510194891.5515466,17.08984375,-793.9453125,145.01953125,116.2109375,19.53125
1510194891.5554528,27.83203125,-975.5859375,-401.85546875,-50.78125,-3.41796875
1510194891.559359,49.8046875,-1000.0,-696.2890625,-8.7890625,-30.76171875
1510194891.5632653,48.828125,-686.03515625,11.23046875,177.24609375,20.01953125
1510194891.5671716,70.3125,-438.4765625,527.34375,158.69140625,47.36328125
1510194891.5710778,61.03515625,-797.8515625,-48.828125,-4.8828125,-36.1328125
1510194891.5731425,29.296875,-1000.0,-435.546875,-13.671875,-59.08203125
1510194891.5770488,46.38671875,-741.69921875,102.5390625,190.4296875,18.06640625
1510194891.580955,33.69140625,-388.671875,568.359375,248.53515625,49.31640625
1510194891.5848613,23.92578125,-687.98828125,137.20703125,39.0625,10.7421875
1510194891.5887675,29.78515625,-1000.0,-338.8671875,-55.6640625,1.953125
1510194891.5926738,41.9921875,-879.8828125,-71.77734375,107.91015625,94.7265625
1510194891.59658,52.24609375,-505.37109375,473.14453125,223.14453125,58.10546875
1510194891.6004863,49.31640625,-644.53125,255.37109375,60.546875,48.33984375
1510194891.6043925,36.1328125,-1000.0,-388.671875,-80.56640625,82.03125
1510194891.6082988,34.1796875,-869.62890625,-169.921875,63.4765625,36.62109375
1510194891.612205,57.12890625,-433.59375,489.2578125,234.86328125,18.5546875
1510194891.6161113,29.296875,-442.3828125,517.578125,143.5546875,20.01953125
1510194891.6176739,9.27734375,-830.078125,38.57421875,-22.94921875,27.83203125
1510194891.6215801,41.50390625,-990.72265625,-164.0625,0.48828125,-27.34375
1510194891.6254864,53.7109375,-674.8046875,251.46484375,191.40625,-31.25
1510194891.6293926,62.98828125,-426.7578125,541.015625,190.4296875,33.203125
1510194891.6332989,37.109375,-701.171875,171.875,-5.859375,37.59765625
1510194891.6372051,17.08984375,-1000.0,-318.359375,-47.8515625,-12.20703125
1510194891.6411114,66.89453125,-853.02734375,-41.9921875,136.71875,28.80859375
1510194891.6450176,75.1953125,-781.25,237.79296875,188.4765625,-6.34765625
1510194891.6489239,49.31640625,-841.30859375,73.73046875,3.41796875,3.41796875
1510194891.6528301,56.640625,-938.4765625,-133.30078125,-91.796875,64.94140625
1510194891.6567364,54.6875,-923.828125,-72.265625,47.36328125,21.484375
1510194891.6606426,41.9921875,-636.71875,304.6875,184.5703125,-44.43359375
1510194891.6632068,19.04296875,-653.3203125,285.15625,73.2421875,-7.8125
1510194891.667113,16.11328125,-923.33984375,-110.83984375,-66.89453125,14.6484375
1510194891.6710193,2.9296875,-983.88671875,-262.20703125,-0.9765625,-41.50390625
1510194891.6749256,8.7890625,-612.3046875,240.72265625,185.05859375,-21.97265625
1510194891.6788318,30.2734375,-517.578125,435.546875,130.859375,-3.41796875
1510194891.682738,21.97265625,-879.8828125,-104.4921875,-62.98828125,4.39453125
1510194891.6866443,44.921875,-1000.0,-573.2421875,-36.62109375,5.859375
1510194891.6905506,41.9921875,-797.36328125,-173.33984375,163.57421875,47.8515625
1510194891.6944568,15.625,-483.3984375,439.94140625,175.29296875,65.4296875
1510194891.698363,18.5546875,-736.81640625,62.01171875,-27.83203125,23.92578125
1510194891.7022693,28.80859375,-1000.0,-494.62890625,-98.14453125,-24.90234375
1510194891.7061756,40.0390625,-801.7578125,-135.25390625,91.30859375,23.92578125
1510194891.7082362,38.57421875,-479.00390625,402.34375,187.98828125,24.90234375
1510194891.7121425,12.20703125,-720.703125,88.8671875,-8.7890625,-8.30078125
1510194891.7160487,6.8359375,-1000.0,-513.671875,-142.578125,40.0390625
1510194891.719955,23.4375,-927.24609375,-412.59765625,17.08984375,25.87890625
1510194891.7238612,33.69140625,-631.34765625,215.33203125,197.75390625,-26.85546875
1510194891.7277675,30.2734375,-748.046875,131.8359375,81.54296875,27.34375
1510194891.7316737,16.11328125,-995.1171875,-572.75390625,-90.33203125,102.5390625
1510194891.73558,3.41796875,-990.234375,-595.703125,-17.578125,36.62109375
1510194891.7394862,12.20703125,-646.97265625,162.109375,181.15234375,34.66796875
1510194891.7433925,28.80859375,-577.1484375,312.5,130.37109375,61.5234375
1510194891.7472987,28.80859375,-945.3125,-188.4765625,-54.19921875,62.98828125
1510194891.751205,20.99609375,-1000.0,-414.0625,-53.22265625,56.15234375
1510194891.7677808,8.30078125,-782.71484375,-25.87890625,132.32421875,11.23046875
1510194891.771687,10.25390625,-621.09375,280.76171875,179.19921875,18.5546875
1510194891.7755933,19.53125,-880.37109375,-147.4609375,-18.06640625,-20.5078125
1510194891.7794995,25.390625,-1000.0,-529.296875,-95.21484375,-35.64453125
1510194891.7834058,38.57421875,-831.0546875,-177.24609375,94.23828125,40.52734375
1510194891.787312,54.19921875,-716.30859375,185.546875,199.70703125,4.39453125
1510194891.7912183,40.0390625,-906.73828125,-119.62890625,39.0625,-30.2734375
1510194891.7951245,23.4375,-997.55859375,-541.015625,-91.30859375,13.671875
1510194891.7990308,6.8359375,-890.13671875,-323.73046875,39.55078125,21.97265625
1510194891.802937,21.484375,-820.80078125,62.98828125,198.73046875,15.625
1510194891.8068433,53.22265625,-855.95703125,32.71484375,80.078125,48.33984375
1510194891.8107495,24.90234375,-901.85546875,-223.6328125,-84.9609375,32.2265625
1510194891.8128123,-7.32421875,-1000.0,-405.2734375,-15.625,-15.13671875
1510194891.8167186,13.18359375,-772.4609375,11.71875,175.29296875,-17.578125
1510194891.8206248,45.8984375,-518.06640625,296.875,146.484375,-17.578125
1510194891.824531,35.15625,-790.52734375,-53.7109375,-34.66796875,23.92578125
1510194891.8284373,18.06640625,-1000.0,-423.33984375,-69.3359375,32.71484375
1510194891.8323436,38.57421875,-828.125,-140.625,123.53515625,8.7890625
1510194891.8362498,54.19921875,-591.30859375,260.7421875,180.6640625,-0.48828125
1510194891.840156,15.625,-778.3203125,71.77734375,0.48828125,42.96875
1510194891.8440623,2.9296875,-992.1875,-369.62890625,-83.0078125,67.87109375
1510194891.8479686,24.90234375,-930.17578125,-423.33984375,76.171875,15.13671875
1510194891.8518748,35.15625,-520.99609375,239.2578125,190.4296875,10.25390625
1510194891.855781,22.4609375,-541.015625,287.59765625,31.25,-11.23046875
1510194891.8588443,18.06640625,-952.63671875,-362.79296875,-64.94140625,-10.7421875
1510194891.8627505,25.390625,-911.62109375,-379.39453125,60.546875,5.859375
1510194891.8666568,38.57421875,-467.28515625,301.7578125,207.51953125,17.08984375
1510194891.870563,41.9921875,-373.046875,421.38671875,109.86328125,20.5078125
1510194891.8744693,20.01953125,-794.43359375,-129.8828125,-71.2890625,44.921875
1510194891.8783755,23.92578125,-1000.0,-430.17578125,-22.94921875,47.8515625
1510194891.8822818,28.3203125,-736.81640625,-4.8828125,165.0390625,-1.46484375
1510194891.886188,17.08984375,-392.08984375,441.89453125,125.0,-0.9765625
1510194891.8900943,3.41796875,-686.5234375,-105.95703125,-48.33984375,27.83203125
1510194891.8940005,30.76171875,-1000.0,-619.140625,-75.68359375,26.3671875
1510194891.8979068,60.05859375,-580.56640625,102.05078125,120.60546875,88.8671875
1510194891.901813,67.87109375,-238.28125,547.36328125,216.30859375,60.05859375
1510194891.9028804,55.6640625,-605.95703125,146.97265625,27.34375,31.25
1510194891.9067867,23.92578125,-861.328125,-186.03515625,-91.30859375,87.890625
1510194891.910693,26.3671875,-608.88671875,76.171875,65.4296875,106.93359375
1510194891.9145992,51.26953125,-252.9296875,507.32421875,217.28515625,43.45703125
1510194891.9185054,43.45703125,-429.19921875,349.609375,63.4765625,58.10546875
1510194891.9224117,23.4375,-889.16015625,-259.765625,-98.14453125,38.0859375
1510194891.926318,2.9296875,-896.97265625,-332.51953125,-12.6953125,-12.20703125
1510194891.9302242,13.671875,-481.4453125,256.34765625,152.34375,29.78515625
1510194891.9341304,34.66796875,-671.38671875,156.25,78.61328125,36.1328125
1510194891.9380367,11.71875,-975.09765625,-274.90234375,-111.81640625,2.44140625
1510194891.941943,0.48828125,-933.10546875,-282.71484375,-87.890625,32.2265625
1510194891.9458492,22.4609375,-692.87109375,78.125,115.234375,29.296875
1510194891.9479082,30.76171875,-468.75,327.63671875,134.27734375,-25.390625
1510194891.9518144,9.27734375,-671.38671875,72.75390625,-72.265625,52.24609375
1510194891.9557207,10.7421875,-1000.0,-403.3203125,-129.8828125,65.4296875
1510194891.959627,31.25,-896.484375,-286.1328125,55.17578125,13.18359375
1510194891.9635332,37.59765625,-594.7265625,222.65625,148.4375,3.41796875
1510194891.9674394,17.578125,-790.52734375,-93.75,-21.484375,1.953125
1510194891.9713457,-20.5078125,-999.0234375,-622.55859375,-145.99609375,-0.48828125
1510194891.975252,-3.41796875,-976.5625,-625.9765625,-19.04296875,36.1328125
1510194891.9791582,43.9453125,-879.39453125,-227.05078125,129.39453125,58.59375
1510194891.9830644,42.48046875,-849.12109375,-80.56640625,19.53125,-18.5546875
1510194891.9869707,22.94921875,-972.16796875,-590.8203125,-146.484375,-55.6640625
1510194891.990877,14.6484375,-995.1171875,-725.09765625,-57.6171875,1.953125
1510194891.9929402,16.6015625,-835.9375,-152.34375,138.671875,44.921875
1510194891.9968464,7.8125,-797.8515625,84.9609375,86.9140625,25.390625
1510194892.0007527,-6.8359375,-974.609375,-469.23828125,-89.35546875,-19.53125
1510194892.004659,4.8828125,-987.3046875,-815.4296875,-81.54296875,-6.8359375
1510194892.0085652,25.87890625,-893.5546875,-311.03515625,114.2578125,20.01953125
1510194892.0124714,34.66796875,-885.25390625,66.89453125,150.87890625,55.6640625
1510194892.0163777,19.53125,-974.609375,-424.8046875,-40.0390625,25.390625
1510194892.020284,-2.44140625,-978.02734375,-989.2578125,-141.6015625,-25.87890625
1510194892.0241902,13.671875,-943.84765625,-599.12109375,21.97265625,-20.01953125
1510194892.0280964,24.90234375,-823.2421875,75.1953125,153.80859375,-21.484375
1510194892.0320027,26.3671875,-891.6015625,-188.96484375,13.18359375,17.578125
1510194892.035909,25.87890625,-979.00390625,-772.4609375,-119.62890625,18.5546875
1510194892.0379722,35.64453125,-986.81640625,-639.16015625,5.859375,-42.48046875
1510194892.0418785,50.78125,-837.40234375,-39.0625,181.640625,-20.01953125
1510194892.0457847,41.50390625,-817.87109375,-15.13671875,66.89453125,83.49609375
1510194892.049691,27.34375,-984.86328125,-583.984375,-114.74609375,42.96875
1510194892.0535972,20.99609375,-969.7265625,-714.84375,-47.8515625,-22.4609375
1510194892.0575035,34.66796875,-964.35546875,-231.93359375,145.5078125,25.87890625
1510194892.0614097,31.73828125,-968.26171875,-203.125,116.69921875,32.2265625
1510194892.065316,20.99609375,-961.9140625,-713.8671875,-70.3125,-7.8125
1510194892.0692222,23.4375,-994.140625,-839.84375,-91.30859375,-31.73828125
1510194892.0731285,33.203125,-865.234375,-376.953125,96.19140625,18.5546875
1510194892.0770347,37.109375,-763.18359375,88.37890625,148.92578125,61.5234375
1510194892.080941,19.53125,-924.31640625,-236.81640625,-18.5546875,8.7890625
1510194892.083022,7.8125,-983.3984375,-657.71484375,-81.0546875,-9.765625
1510194892.0869284,33.69140625,-939.453125,-417.48046875,100.09765625,34.1796875
1510194892.0908346,43.9453125,-777.83203125,70.3125,236.81640625,64.94140625
1510194892.0947409,26.3671875,-817.3828125,-24.90234375,78.61328125,72.265625
1510194892.098647,30.76171875,-981.4453125,-530.76171875,-60.546875,36.1328125
1510194892.1025534,41.9921875,-970.703125,-677.24609375,60.05859375,-5.37109375
1510194892.1064596,57.12890625,-964.84375,-400.87890625,219.7265625,9.765625
1510194892.1103659,54.19921875,-943.84765625,-224.609375,112.3046875,13.671875
1510194892.114272,20.01953125,-952.63671875,-491.2109375,-46.38671875,-2.9296875
1510194892.1181784,20.5078125,-1000.0,-716.30859375,21.97265625,41.50390625
1510194892.1220846,46.38671875,-806.640625,-253.90625,207.03125,49.31640625
1510194892.1259909,46.38671875,-659.1796875,125.9765625,187.01171875,48.33984375
1510194892.1430447,49.31640625,-884.765625,-343.26171875,-2.44140625,62.98828125
1510194892.146951,53.22265625,-1000.0,-812.01171875,-54.6875,41.9921875
1510194892.1508572,44.43359375,-864.2578125,-408.69140625,137.6953125,50.78125
1510194892.1547635,38.57421875,-627.44140625,138.18359375,236.81640625,55.17578125
1510194892.1586697,-15.625,-803.22265625,-156.73828125,30.2734375,44.921875
1510194892.162576,-32.71484375,-1000.0,-808.59375,-91.30859375,32.71484375
1510194892.1664822,15.625,-948.73046875,-725.09765625,71.2890625,10.25390625
1510194892.1703885,45.8984375,-663.0859375,-64.453125,220.21484375,9.27734375
1510194892.1742947,55.17578125,-694.3359375,-52.734375,87.40234375,41.015625
1510194892.178201,45.41015625,-989.2578125,-756.34765625,-63.4765625,46.875
1510194892.1821072,54.19921875,-957.51953125,-801.26953125,22.4609375,83.49609375
1510194892.1860135,72.75390625,-601.5625,30.76171875,184.5703125,83.0078125
1510194892.188077,67.3828125,-586.42578125,176.26953125,126.46484375,25.87890625
1510194892.1919832,46.875,-933.59375,-422.8515625,-34.1796875,-37.59765625
1510194892.1958895,42.96875,-1000.0,-610.83984375,-7.32421875,-14.16015625
1510194892.1997957,65.91796875,-807.6171875,-114.74609375,169.921875,24.90234375
1510194892.203702,54.6875,-623.046875,197.75390625,179.19921875,19.53125
1510194892.2076082,29.78515625,-880.37109375,-270.99609375,-15.13671875,25.87890625
1510194892.2115145,43.45703125,-1000.0,-724.609375,-70.3125,17.08984375
1510194892.2154207,52.24609375,-773.4375,-236.81640625,109.375,32.71484375
1510194892.219327,57.12890625,-559.08203125,278.80859375,187.98828125,44.43359375
1510194892.2232332,51.7578125,-884.27734375,-200.1953125,6.34765625,58.10546875
1510194892.2271395,40.52734375,-1000.0,-564.94140625,-101.07421875,50.78125
1510194892.2310457,63.4765625,-855.46875,-230.46875,65.4296875,19.04296875
1510194892.2331095,76.171875,-533.69140625,267.08984375,222.16796875,58.59375
1510194892.2370157,55.17578125,-611.328125,185.05859375,88.37890625,43.9453125
1510194892.240922,35.15625,-943.84765625,-332.51953125,-115.72265625,-29.78515625
1510194892.2448282,70.3125,-956.54296875,-426.26953125,-36.62109375,-29.78515625
1510194892.2487345,118.1640625,-652.34375,44.921875,194.82421875,11.23046875
1510194892.2526407,104.98046875,-640.625,140.13671875,126.46484375,29.78515625
1510194892.256547,85.9375,-924.31640625,-375.48828125,-81.54296875,20.01953125
1510194892.2604532,88.8671875,-974.12109375,-647.94921875,-43.9453125,15.13671875
1510194892.2643595,89.35546875,-961.9140625,-341.30859375,154.78515625,25.390625
1510194892.2682657,89.35546875,-783.69140625,7.8125,162.59765625,19.53125
1510194892.272172,68.84765625,-760.7421875,-105.46875,-13.671875,1.953125
1510194892.2760782,50.29296875,-1000.0,-513.671875,-76.66015625,1.46484375
1510194892.2781405,74.21875,-828.61328125,-295.8984375,94.7265625,16.6015625
1510194892.2820468,96.6796875,-387.20703125,275.87890625,189.94140625,31.25
1510194892.285953,76.66015625,-549.31640625,100.09765625,20.01953125,3.90625
1510194892.2898593,39.55078125,-980.46875,-481.4453125,-95.703125,5.859375
1510194892.2937655,41.015625,-873.53515625,-434.5703125,24.90234375,66.89453125
1510194892.2976718,71.77734375,-528.80859375,69.3359375,166.015625,62.5
1510194892.301578,79.1015625,-661.1328125,1.953125,57.6171875,15.13671875
1510194892.3054843,62.01171875,-954.58984375,-541.015625,-104.00390625,51.26953125
1510194892.3093905,62.5,-999.0234375,-878.90625,-34.1796875,45.8984375
1510194892.3132968,79.58984375,-751.46484375,-356.93359375,160.64453125,20.5078125
1510194892.317203,71.2890625,-525.390625,104.98046875,119.140625,20.99609375
1510194892.3211093,42.96875,-808.59375,-395.5078125,-68.359375,29.78515625
1510194892.3231728,40.52734375,-1000.0,-825.68359375,-83.49609375,14.16015625
1510194892.327079,62.98828125,-811.5234375,-396.484375,99.12109375,-14.6484375
1510194892.3309853,65.91796875,-496.58203125,111.81640625,146.97265625,79.1015625
1510194892.3348916,38.0859375,-742.67578125,-269.53125,-38.57421875,114.2578125
1510194892.3387978,33.69140625,-1000.0,-850.09765625,-120.60546875,25.390625
1510194892.342704,62.5,-919.43359375,-654.296875,56.15234375,15.13671875
1510194892.3466103,66.89453125,-775.87890625,-122.0703125,169.921875,82.51953125
1510194892.3505166,42.48046875,-863.76953125,-434.08203125,-5.859375,69.3359375
1510194892.3544228,22.94921875,-999.51171875,-1000.0,-159.1796875,28.80859375
1510194892.358329,37.59765625,-931.15234375,-714.35546875,-41.9921875,63.96484375
1510194892.3622353,78.61328125,-612.3046875,-69.82421875,145.5078125,100.09765625
1510194892.3661416,67.87109375,-704.1015625,-101.07421875,55.17578125,63.4765625
1510194892.367704,32.71484375,-977.5390625,-641.6015625,-115.72265625,90.33203125
1510194892.3716102,40.0390625,-992.67578125,-811.5234375,-61.03515625,20.99609375
1510194892.3755164,56.640625,-787.59765625,-324.70703125,137.6953125,-4.8828125
1510194892.3794227,58.10546875,-661.62109375,-26.85546875,114.2578125,71.2890625
1510194892.383329,38.0859375,-895.01953125,-455.56640625,-82.03125,35.15625
1510194892.3872352,35.15625,-988.76953125,-905.76171875,-116.69921875,16.6015625
1510194892.3911414,59.5703125,-933.10546875,-620.60546875,62.98828125,26.85546875
1510194892.3950477,59.08203125,-941.40625,-348.14453125,137.6953125,-4.8828125
1510194892.398954,34.66796875,-969.7265625,-507.32421875,-28.80859375,24.90234375
1510194892.4028602,27.34375,-970.21484375,-705.56640625,-126.953125,82.51953125
1510194892.4067664,60.546875,-976.07421875,-606.4453125,43.9453125,65.91796875
1510194892.4106727,80.56640625,-740.234375,-115.72265625,178.22265625,19.53125
1510194892.412756,32.71484375,-751.953125,-150.87890625,0.0,0.48828125
1510194892.4166622,-5.859375,-979.00390625,-645.01953125,-157.2265625,24.4140625
1510194892.4205685,18.5546875,-986.81640625,-748.046875,-51.26953125,27.83203125
1510194892.4244747,14.6484375,-811.5234375,-279.78515625,103.02734375,43.45703125
1510194892.428381,-45.8984375,-742.1875,-110.3515625,8.30078125,43.9453125
1510194892.4322872,-40.52734375,-942.87109375,-666.50390625,-176.7578125,2.9296875
1510194892.4361935,-30.2734375,-1000.0,-1000.0,-181.15234375,15.13671875
1510194892.4400997,-35.15625,-842.28515625,-649.90234375,-11.71875,75.68359375
1510194892.444006,-42.48046875,-628.41796875,-83.984375,0.9765625,62.01171875
1510194892.4479122,-54.6875,-839.84375,-395.5078125,-178.22265625,35.15625
1510194892.4518185,-55.6640625,-1000.0,-899.90234375,-230.95703125,37.109375
1510194892.4557247,-69.3359375,-850.09765625,-601.07421875,-55.6640625,29.78515625
1510194892.4582708,-58.59375,-535.15625,9.27734375,44.43359375,45.8984375
1510194892.462177,-50.78125,-714.35546875,-246.58203125,-143.5546875,37.109375
1510194892.4660833,-66.40625,-1000.0,-845.21484375,-271.97265625,20.01953125
1510194892.4699895,-63.96484375,-896.484375,-639.6484375,-97.65625,32.2265625
1510194892.4738958,-36.62109375,-519.04296875,18.5546875,57.12890625,56.640625
1510194892.477802,-38.57421875,-675.29296875,-175.78125,-72.265625,30.76171875
1510194892.4817083,-47.8515625,-1000.0,-906.25,-218.75,-10.25390625
1510194892.4856145,-8.7890625,-955.56640625,-819.3359375,-129.8828125,9.27734375
1510194892.4895208,27.34375,-548.33984375,-67.87109375,73.73046875,8.30078125
1510194892.493427,30.2734375,-417.96875,111.328125,41.015625,29.296875
1510194892.4973333,15.625,-850.09765625,-366.2109375,-136.23046875,62.5
1510194892.5012395,12.20703125,-1000.0,-583.984375,-133.7890625,32.2265625
1510194892.5178106,42.96875,-582.51953125,-102.05078125,66.40625,19.04296875
1510194892.5217168,68.359375,-292.96875,254.39453125,122.0703125,37.109375
1510194892.525623,42.48046875,-687.98828125,-177.24609375,-65.4296875,-5.859375
1510194892.5295293,22.4609375,-1000.0,-595.703125,-132.32421875,-41.015625
1510194892.5334356,59.5703125,-643.06640625,-197.265625,74.21875,34.66796875
1510194892.5373418,96.6796875,-420.8984375,154.78515625,202.1484375,80.078125
1510194892.541248,99.12109375,-770.99609375,-217.7734375,14.6484375,38.0859375
1510194892.5451543,86.9140625,-888.18359375,-493.65234375,-113.76953125,37.59765625
1510194892.5490606,98.14453125,-730.95703125,-348.6328125,46.875,33.69140625
1510194892.5529668,102.5390625,-401.85546875,70.80078125,202.1484375,23.92578125
1510194892.556873,88.37890625,-418.9453125,47.36328125,77.1484375,0.48828125
1510194892.5607793,67.87109375,-746.58203125,-369.140625,-83.0078125,-12.20703125
1510194892.5629401,52.734375,-867.67578125,-498.53515625,-2.9296875,-2.9296875
1510194892.5668464,105.46875,-433.59375,23.4375,197.75390625,48.33984375
1510194892.5707526,134.765625,-191.89453125,299.8046875,164.0625,26.85546875
1510194892.5746589,100.5859375,-546.38671875,-123.53515625,-25.390625,-6.8359375
1510194892.5785651,88.8671875,-905.2734375,-512.20703125,-33.203125,-21.97265625
1510194892.5824714,95.703125,-647.4609375,-175.29296875,153.80859375,15.13671875
1510194892.5863776,97.65625,-248.53515625,287.109375,210.9375,66.40625
1510194892.5902839,79.1015625,-458.0078125,38.0859375,15.13671875,18.06640625
1510194892.5941901,64.94140625,-881.8359375,-461.42578125,-83.49609375,-4.8828125
1510194892.5980964,80.078125,-880.37109375,-434.5703125,90.8203125,41.9921875
1510194892.6020026,81.54296875,-295.41015625,235.3515625,208.984375,41.9921875
1510194892.6059089,60.546875,-187.5,321.2890625,53.7109375,52.734375
1510194892.6084526,42.48046875,-779.296875,-317.87109375,-68.359375,38.57421875
1510194892.6123588,52.734375,-846.6796875,-385.7421875,52.24609375,-2.9296875
1510194892.616265,75.68359375,-231.4453125,291.015625,202.63671875,-11.71875
1510194892.6201713,88.8671875,-127.44140625,413.0859375,108.88671875,-18.06640625
1510194892.6240776,80.078125,-681.640625,-183.10546875,-61.03515625,-22.4609375
1510194892.6279838,83.0078125,-951.66015625,-468.75,-23.4375,0.9765625
1510194892.63189,102.5390625,-453.125,79.58984375,188.96484375,68.359375
1510194892.6357963,90.8203125,-13.671875,552.734375,198.73046875,71.2890625
1510194892.6397026,59.08203125,-547.36328125,-58.59375,11.23046875,37.59765625
1510194892.6436088,50.78125,-973.6328125,-586.9140625,-46.38671875,56.640625
1510194892.647515,79.1015625,-407.2265625,56.15234375,133.7890625,38.57421875
1510194892.6514213,87.40234375,32.2265625,578.125,209.9609375,20.5078125
1510194892.6530042,68.359375,-311.03515625,212.40234375,26.3671875,31.73828125
1510194892.6569104,52.24609375,-724.12109375,-270.99609375,-74.21875,17.578125
1510194892.6608167,62.5,-433.59375,16.11328125,80.078125,55.17578125
1510194892.664723,88.8671875,-21.97265625,520.5078125,211.9140625,83.0078125
1510194892.6686292,84.9609375,-212.890625,342.28515625,63.96484375,65.91796875
1510194892.6725354,56.15234375,-672.8515625,-180.6640625,-71.77734375,91.30859375
1510194892.6764417,49.31640625,-659.1796875,-181.15234375,53.22265625,95.703125
1510194892.680348,71.2890625,-153.80859375,390.625,212.890625,60.05859375
1510194892.6842542,57.6171875,-346.6796875,269.04296875,106.4453125,41.015625
1510194892.6881604,44.43359375,-700.1953125,-188.4765625,-73.2421875,-3.90625
1510194892.6920667,33.203125,-631.8359375,-201.171875,-52.734375,-0.48828125
1510194892.695973,41.9921875,-347.16796875,174.31640625,154.78515625,15.13671875
1510194892.6980164,61.5234375,-14.16015625,545.41015625,178.7109375,45.8984375
1510194892.7019227,50.29296875,-251.953125,238.76953125,-11.71875,42.48046875
1510194892.705829,51.7578125,-589.84375,-148.4375,-67.87109375,54.6875
1510194892.7097352,62.5,-387.20703125,109.86328125,114.2578125,39.0625
1510194892.7136414,53.22265625,-3.90625,566.40625,200.68359375,10.7421875
1510194892.7175477,41.015625,-262.6953125,297.36328125,22.4609375,25.390625
1510194892.721454,51.7578125,-791.50390625,-280.76171875,-95.21484375,-7.32421875
1510194892.7253602,64.94140625,-867.1875,-314.453125,33.203125,-19.04296875
1510194892.7292664,55.17578125,-427.734375,193.359375,170.41015625,-6.34765625
1510194892.7331727,41.50390625,-138.18359375,411.62109375,59.08203125,-23.4375
1510194892.737079,41.015625,-511.23046875,-30.2734375,-84.47265625,3.41796875
1510194892.7409852,49.31640625,-618.1640625,-136.71875,2.44140625,70.80078125
1510194892.743085,57.6171875,-146.97265625,395.5078125,185.546875,45.41015625
1510194892.7469912,61.03515625,50.29296875,617.67578125,119.62890625,20.5078125
1510194892.7508974,41.9921875,-446.2890625,92.28515625,-56.15234375,30.76171875
1510194892.7548037,20.5078125,-793.45703125,-268.5546875,-54.19921875,40.0390625
1510194892.75871,32.2265625,-360.83984375,194.3359375,108.3984375,34.1796875
1510194892.7626162,46.38671875,-121.58203125,504.39453125,154.78515625,16.6015625
1510194892.7665224,31.73828125,-553.7109375,44.43359375,-16.11328125,13.18359375
1510194892.7704287,38.57421875,-1000.0,-612.79296875,-109.86328125,-3.41796875
1510194892.774335,49.8046875,-631.34765625,-217.7734375,68.359375,32.2265625
1510194892.7782412,44.43359375,-77.1484375,506.34765625,191.89453125,55.6640625
1510194892.7821474,43.45703125,-452.63671875,140.13671875,19.53125,43.9453125
1510194892.7860537,31.73828125,-890.625,-369.62890625,-106.4453125,29.296875
1510194892.7881148,35.64453125,-712.40234375,-210.9375,30.76171875,-14.16015625
1510194892.792021,61.5234375,-218.26171875,355.95703125,186.03515625,-12.20703125
1510194892.7959273,47.36328125,-292.96875,310.546875,69.3359375,41.9921875
1510194892.7998335,14.16015625,-785.15625,-247.55859375,-95.21484375,46.38671875
1510194892.8037398,34.66796875,-860.83984375,-366.2109375,-38.57421875,7.8125
1510194892.807646,51.7578125,-490.234375,82.03125,139.6484375,13.18359375
1510194892.8115523,33.203125,-509.765625,139.6484375,130.859375,70.3125
1510194892.8154585,26.85546875,-963.8671875,-423.828125,-71.77734375,65.4296875
1510194892.8193648,33.69140625,-969.7265625,-508.30078125,-95.21484375,41.50390625
1510194892.823271,41.015625,-580.078125,-28.3203125,111.81640625,-1.46484375
1510194892.8271773,39.0625,-320.80078125,301.26953125,157.2265625,-24.90234375
1510194892.8310835,21.97265625,-574.21875,9.765625,-26.85546875,8.30078125
1510194892.8331494,11.23046875,-877.44140625,-355.46875,-115.234375,51.26953125
1510194892.8370557,29.78515625,-807.6171875,-227.05078125,39.55078125,34.66796875
1510194892.840962,37.109375,-393.5546875,270.5078125,175.78125,22.94921875
1510194892.8448682,33.203125,-404.296875,224.12109375,26.85546875,27.34375
1510194892.8487744,25.390625,-758.30078125,-214.84375,-114.74609375,83.0078125
1510194892.8526807,35.15625,-881.34765625,-311.5234375,18.06640625,69.82421875
1510194892.856587,47.36328125,-785.15625,-97.16796875,159.1796875,-5.859375
1510194892.8604932,35.15625,-573.73046875,83.0078125,53.22265625,13.18359375
1510194892.8643994,32.2265625,-683.10546875,-130.859375,-95.703125,50.29296875
1510194892.8683057,50.29296875,-910.64453125,-354.4921875,-31.73828125,65.4296875
1510194892.872212,57.12890625,-503.90625,120.60546875,145.01953125,101.07421875
1510194892.8761182,56.640625,-235.83984375,416.50390625,142.08984375,44.43359375
1510194892.8929713,37.109375,-581.0546875,14.16015625,-26.3671875,13.671875
1510194892.8968775,5.37109375,-958.0078125,-435.546875,-80.56640625,52.734375
1510194892.9007838,20.99609375,-702.1484375,-131.8359375,100.5859375,33.203125
1510194892.90469,40.52734375,-236.328125,402.34375,167.96875,3.41796875
1510194892.9085963,31.73828125,-549.8046875,103.515625,-5.37109375,41.015625
1510194892.9125025,41.50390625,-995.1171875,-615.234375,-108.3984375,5.859375
1510194892.9164088,58.10546875,-845.21484375,-510.25390625,40.52734375,-39.55078125
1510194892.920315,61.5234375,-354.4921875,267.578125,187.01171875,-54.6875
1510194892.9242213,44.43359375,-412.59765625,230.95703125,44.921875,-32.2265625
1510194892.9281275,28.80859375,-910.64453125,-461.42578125,-134.27734375,-35.64453125
1510194892.9320338,7.8125,-937.98828125,-516.11328125,-17.08984375,-56.15234375
1510194892.93594,2.9296875,-418.9453125,201.171875,195.3125,-30.76171875
1510194892.937982,25.87890625,-279.78515625,355.46875,109.375,23.4375
1510194892.9418883,30.76171875,-783.69140625,-202.63671875,-77.63671875,54.19921875
1510194892.9457946,34.1796875,-988.76953125,-456.0546875,-53.7109375,9.27734375
1510194892.9497008,47.36328125,-555.6640625,20.01953125,131.34765625,-53.7109375
1510194892.953607,54.19921875,-298.33984375,337.890625,153.3203125,-20.5078125
1510194892.9575133,23.92578125,-718.75,-127.44140625,-19.53125,41.50390625
1510194892.9614196,4.39453125,-1000.0,-617.1875,-72.75390625,42.96875
1510194892.9653258,30.2734375,-691.40625,-183.59375,103.02734375,81.54296875
1510194892.969232,47.8515625,-297.36328125,377.9296875,186.03515625,91.30859375
1510194892.9731383,39.0625,-750.48828125,-193.359375,-2.44140625,11.23046875
1510194892.9770446,4.39453125,-1000.0,-626.46484375,-127.9296875,-13.671875
1510194892.9809508,-3.90625,-790.0390625,-236.81640625,36.62109375,12.6953125
1510194892.9980252,32.71484375,-404.78515625,248.046875,186.5234375,18.5546875
1510194893.0019314,38.0859375,-471.6796875,177.734375,33.203125,16.11328125
1510194893.0058377,20.5078125,-835.9375,-271.484375,-126.953125,10.25390625
1510194893.009744,25.390625,-876.46484375,-339.84375,-18.5546875,-6.34765625
1510194893.0136502,37.109375,-481.93359375,136.71875,176.7578125,7.8125
1510194893.0175564,28.80859375,-444.82421875,231.4453125,118.65234375,38.57421875
1510194893.0214627,14.6484375,-869.140625,-312.98828125,-61.5234375,20.99609375
1510194893.025369,16.6015625,-949.70703125,-459.47265625,-60.05859375,37.59765625
1510194893.0292752,33.203125,-848.6328125,-214.35546875,123.53515625,4.8828125
1510194893.0331814,46.875,-736.328125,-46.875,142.08984375,-14.6484375
1510194893.0370877,26.85546875,-758.30078125,-212.40234375,-56.15234375,7.8125
1510194893.040994,-2.44140625,-1000.0,-606.4453125,-114.74609375,-6.8359375
1510194893.0280466,16.11328125,-852.5390625,-371.09375,81.0546875,-28.80859375
1510194893.0319529,45.8984375,-433.59375,165.0390625,184.08203125,-13.18359375
1510194893.035859,46.38671875,-579.1015625,20.99609375,19.53125,34.66796875
1510194893.0397654,35.64453125,-978.515625,-542.96875,-85.9375,44.921875
1510194893.0436716,38.57421875,-909.1796875,-551.7578125,28.3203125,8.30078125
1510194893.0475779,53.7109375,-660.64453125,-75.68359375,171.38671875,17.578125
1510194893.051484,40.0390625,-749.51171875,-69.82421875,72.265625,50.29296875
1510194893.0553904,9.765625,-966.30859375,-657.71484375,-93.26171875,-13.18359375
1510194893.0592966,11.71875,-996.09375,-916.9921875,-43.9453125,-26.3671875
1510194893.0632029,18.5546875,-747.55859375,-279.78515625,133.7890625,52.734375
1510194893.067109,15.13671875,-707.51953125,-29.296875,89.84375,35.64453125
1510194893.0710154,7.8125,-969.7265625,-633.30078125,-102.5390625,7.8125
1510194893.1031017,8.30078125,-986.328125,-1000.0,-115.234375,44.43359375
1510194893.107008,33.203125,-927.24609375,-674.8046875,73.2421875,61.03515625
1510194893.1109142,44.921875,-902.34375,-251.46484375,121.58203125,34.66796875
1510194893.1148205,34.1796875,-969.23828125,-655.76171875,-63.4765625,-41.50390625
1510194893.1187267,27.34375,-977.5390625,-1000.0,-131.8359375,11.23046875
1510194893.122633,20.01953125,-954.58984375,-797.8515625,46.38671875,91.796875
1510194893.1265392,23.92578125,-942.3828125,-297.36328125,126.46484375,85.9375
1510194893.1304455,20.01953125,-963.8671875,-543.45703125,-20.5078125,36.62109375
1510194893.1343517,12.6953125,-975.5859375,-1000.0,-95.703125,60.05859375
1510194893.138258,31.25,-972.65625,-717.28515625,26.85546875,52.734375
1510194893.1421642,45.8984375,-758.30078125,-91.30859375,200.1953125,26.3671875
1510194893.1460705,31.73828125,-805.17578125,-47.36328125,93.75,52.24609375
1510194893.118096,7.32421875,-989.2578125,-514.16015625,-90.33203125,57.12890625
1510194893.1220024,-2.9296875,-983.88671875,-642.578125,-30.2734375,8.7890625
1510194893.1259086,30.2734375,-817.3828125,-167.96875,162.109375,-5.37109375
1510194893.1298149,57.12890625,-729.4921875,88.8671875,135.25390625,32.71484375
1510194893.133721,41.50390625,-914.55078125,-359.86328125,-57.6171875,38.0859375
1510194893.1376274,24.90234375,-993.65234375,-736.81640625,-65.91796875,38.57421875
1510194893.1415336,39.55078125,-901.3671875,-359.86328125,132.8125,90.8203125
1510194893.1454399,51.26953125,-747.0703125,84.47265625,178.7109375,105.46875
1510194893.149346,28.3203125,-837.890625,-138.671875,-12.20703125,41.50390625
1510194893.1532524,13.671875,-975.5859375,-548.828125,-116.2109375,5.37109375
1510194893.1571586,24.90234375,-995.1171875,-456.54296875,44.43359375,6.8359375
1510194893.1610649,39.55078125,-794.921875,35.15625,184.5703125,35.15625
1510194893.1631274,21.484375,-770.01953125,-10.25390625,43.9453125,15.625
1510194893.1670337,-0.9765625,-980.95703125,-509.765625,-108.88671875,8.30078125
1510194893.17094,26.3671875,-986.81640625,-646.484375,-22.4609375,74.21875
1510194893.1748462,54.6875,-902.34375,-332.03125,167.48046875,51.7578125
1510194893.1787524,28.80859375,-859.375,-67.3828125,76.171875,3.90625
1510194893.1826587,1.46484375,-958.49609375,-489.2578125,-101.07421875,37.59765625
1510194893.186565,23.4375,-997.0703125,-917.48046875,-45.8984375,52.734375
1510194893.1904712,50.29296875,-864.74609375,-522.94921875,136.71875,-0.48828125
1510194893.1943774,52.24609375,-666.015625,133.30078125,149.90234375,30.2734375
1510194893.1982837,37.59765625,-816.40625,-127.9296875,-23.4375,58.10546875
1510194893.20219,15.13671875,-1000.0,-604.4921875,-80.56640625,28.80859375
1510194893.2060962,22.94921875,-798.33984375,-164.55078125,130.859375,79.1015625
1510194893.2081568,41.015625,-407.71484375,449.70703125,238.28125,89.35546875
1510194893.212063,37.109375,-612.79296875,187.5,23.4375,80.078125
1510194893.2159693,26.3671875,-1000.0,-386.71875,-90.8203125,46.875
1510194893.2198756,45.41015625,-846.6796875,-174.8046875,100.5859375,20.99609375
1510194893.2237818,69.3359375,-362.79296875,497.0703125,269.53125,42.96875
1510194893.227688,49.8046875,-582.03125,296.875,107.421875,-10.7421875
1510194893.2315943,31.73828125,-1000.0,-473.6328125,-85.44921875,-7.8125
1510194893.2355006,36.1328125,-887.20703125,-368.1640625,-2.9296875,40.0390625
1510194893.2394068,49.8046875,-318.359375,476.5625,207.03125,67.87109375
1510194893.243313,61.03515625,-216.30859375,587.890625,169.921875,99.609375
1510194893.2472193,58.10546875,-816.40625,-85.9375,-29.78515625,50.29296875
1510194893.2511256,63.96484375,-993.1640625,-341.30859375,-22.4609375,0.0
1510194893.268199,84.9609375,-489.74609375,216.796875,179.6875,34.66796875
1510194893.2721052,83.984375,-250.9765625,520.01953125,195.80078125,36.1328125
1510194893.2760115,57.6171875,-661.1328125,74.70703125,6.34765625,-8.30078125
1510194893.2799177,47.36328125,-964.35546875,-294.43359375,-50.78125,-36.62109375
1510194893.283824,66.40625,-595.21484375,108.88671875,140.13671875,-7.32421875
1510194893.2877302,87.40234375,-409.1796875,429.19921875,253.41796875,16.11328125
1510194893.2916365,61.5234375,-805.6640625,18.5546875,78.125,-33.69140625
1510194893.2955427,41.015625,-868.1640625,-195.80078125,-48.33984375,25.390625
1510194893.299449,61.03515625,-628.41796875,35.64453125,94.7265625,94.23828125
1510194893.3033552,72.265625,-251.46484375,491.69921875,250.9765625,58.10546875
1510194893.3072615,66.89453125,-298.33984375,451.66015625,120.1171875,33.69140625
1510194893.3111677,64.94140625,-753.41796875,-65.4296875,-41.015625,11.23046875
1510194893.3132343,73.73046875,-851.07421875,-178.7109375,30.76171875,-9.27734375
1510194893.3171406,76.66015625,-457.51953125,305.17578125,208.49609375,13.671875
1510194893.3210468,76.171875,-215.33203125,576.66015625,172.36328125,48.33984375
1510194893.324953,71.2890625,-520.5078125,199.70703125,-8.7890625,51.7578125
1510194893.3288593,66.89453125,-874.0234375,-183.10546875,-18.06640625,45.41015625
1510194893.3327656,69.3359375,-755.859375,12.6953125,163.0859375,3.41796875
1510194893.3366718,71.77734375,-407.71484375,395.01953125,192.87109375,40.0390625
1510194893.340578,70.80078125,-544.921875,202.1484375,8.7890625,48.33984375
1510194893.3444843,72.75390625,-910.64453125,-288.0859375,-62.5,20.01953125
1510194893.3483906,83.984375,-926.7578125,-323.2421875,86.42578125,9.765625
1510194893.3522968,79.1015625,-464.35546875,276.85546875,178.22265625,-18.06640625
1510194893.356203,72.265625,-479.00390625,266.11328125,52.24609375,-64.94140625
1510194893.3582635,64.94140625,-940.4296875,-344.23828125,-53.7109375,-47.8515625
1510194893.3621697,62.5,-872.0703125,-299.31640625,57.6171875,-11.23046875
1510194893.366076,82.03125,-348.6328125,353.515625,198.2421875,18.06640625
1510194893.3699822,80.078125,-293.9453125,422.8515625,88.8671875,54.6875
1510194893.3738885,62.01171875,-788.0859375,-235.83984375,-77.1484375,30.76171875
1510194893.3777947,70.3125,-1000.0,-560.05859375,-19.53125,-8.30078125
1510194893.381701,79.58984375,-717.7734375,-85.44921875,168.45703125,-10.7421875
1510194893.3856072,65.91796875,-525.390625,260.7421875,148.92578125,-31.73828125
1510194893.3895135,55.17578125,-808.10546875,-323.73046875,-57.12890625,-16.6015625
1510194893.3934197,51.7578125,-1000.0,-818.84765625,-93.75,12.6953125
1510194893.397326,67.87109375,-714.35546875,-159.66796875,111.81640625,0.48828125
1510194893.4012322,81.0546875,-331.0546875,378.90625,186.03515625,24.4140625
1510194893.4032967,64.453125,-663.57421875,-17.08984375,17.578125,53.7109375
1510194893.407203,52.734375,-1000.0,-533.203125,-81.0546875,26.85546875
1510194893.4111092,79.58984375,-832.51953125,-290.0390625,74.70703125,25.87890625
1510194893.4150155,104.4921875,-452.63671875,230.46875,219.23828125,41.015625
1510194893.4189217,76.66015625,-665.52734375,26.3671875,62.01171875,40.52734375
1510194893.422828,56.15234375,-1000.0,-620.1171875,-100.09765625,19.04296875
1510194893.4267342,62.5,-900.390625,-602.05078125,21.484375,24.4140625
1510194893.4306405,74.70703125,-652.34375,-39.0625,187.01171875,8.30078125
1510194893.4345467,70.3125,-821.77734375,-181.15234375,88.8671875,20.01953125
1510194893.438453,44.921875,-1000.0,-619.140625,-72.265625,-6.8359375
1510194893.4423592,46.38671875,-942.87109375,-573.73046875,-30.2734375,18.06640625
1510194893.4462655,69.82421875,-682.12890625,-118.65234375,155.76171875,71.2890625
1510194893.448645,68.84765625,-444.82421875,172.36328125,145.5078125,70.80078125
1510194893.4525514,46.38671875,-712.890625,-182.6171875,-34.66796875,55.17578125
1510194893.4564576,34.1796875,-1000.0,-614.2578125,-78.125,16.6015625
1510194893.4603639,56.640625,-839.84375,-332.51953125,100.09765625,36.1328125
1510194893.46427,80.078125,-502.44140625,137.6953125,189.94140625,34.66796875
1510194893.4681764,58.59375,-742.67578125,-174.8046875,8.30078125,44.43359375
1510194893.4720826,45.41015625,-990.72265625,-699.21875,-103.515625,60.546875
1510194893.4759889,69.3359375,-996.09375,-676.7578125,37.59765625,45.41015625
1510194893.479895,83.984375,-816.89453125,-240.234375,168.9453125,8.7890625
1510194893.4838014,63.4765625,-609.375,5.859375,47.8515625,39.0625
1510194893.4877076,52.734375,-902.83203125,-465.8203125,-87.40234375,84.9609375
1510194893.4916139,65.91796875,-971.6796875,-656.25,12.6953125,39.55078125
1510194893.4931767,67.3828125,-548.33984375,-37.59765625,190.91796875,13.671875
1510194893.497083,61.5234375,-422.36328125,209.9609375,124.0234375,37.59765625
1510194893.5009892,56.15234375,-832.03125,-364.2578125,-60.05859375,19.04296875
1510194893.5048954,60.05859375,-1000.0,-715.33203125,-35.15625,36.1328125
1510194893.5088017,70.3125,-676.26953125,-193.359375,169.921875,55.17578125
1510194893.512708,76.66015625,-572.265625,62.5,173.33984375,-3.90625
1510194893.5166142,82.03125,-894.04296875,-462.890625,-33.69140625,-18.06640625
1510194893.5205204,86.42578125,-1000.0,-998.046875,-108.3984375,-17.08984375
1510194893.5244267,88.37890625,-791.9921875,-606.93359375,69.82421875,12.20703125
1510194893.528333,96.19140625,-399.90234375,137.6953125,186.03515625,35.15625
1510194893.5322392,77.63671875,-645.99609375,-149.4140625,14.16015625,34.66796875
1510194893.5361454,47.8515625,-1000.0,-697.75390625,-101.5625,69.3359375
1510194893.5382082,67.87109375,-876.46484375,-514.6484375,38.0859375,29.296875
1510194893.5421145,92.7734375,-507.8125,13.18359375,181.15234375,36.62109375
1510194893.5460207,75.68359375,-621.58203125,-66.40625,65.4296875,109.86328125
1510194893.549927,55.17578125,-965.8203125,-563.4765625,-85.9375,71.2890625
1510194893.5538332,70.80078125,-970.21484375,-656.25,0.0,-4.39453125
1510194893.5577395,80.56640625,-662.59765625,-155.76171875,178.22265625,28.80859375
1510194893.5616457,62.01171875,-701.171875,-209.47265625,119.140625,-30.2734375
1510194893.565552,58.59375,-989.2578125,-822.75390625,-87.40234375,-73.73046875
1510194893.5694582,64.94140625,-981.93359375,-774.4140625,-87.40234375,36.62109375
1510194893.5733645,75.1953125,-687.98828125,-257.32421875,120.60546875,11.71875
1510194893.5772707,79.1015625,-406.73828125,80.078125,152.34375,12.6953125
1510194893.581177,63.4765625,-666.9921875,-239.2578125,-22.4609375,57.12890625
1510194893.5832422,52.734375,-1000.0,-689.453125,-81.54296875,6.34765625
1510194893.5871484,66.89453125,-809.5703125,-425.78125,88.8671875,40.0390625
1510194893.5910547,81.0546875,-449.70703125,25.87890625,199.70703125,39.55078125
1510194893.594961,64.453125,-601.5625,-136.23046875,27.83203125,27.34375
1510194893.5988672,50.78125,-945.3125,-696.77734375,-83.984375,10.25390625
1510194893.6027734,70.80078125,-953.125,-762.6953125,62.01171875,20.01953125
1510194893.6066797,97.65625,-820.80078125,-351.5625,182.6171875,87.890625
1510194893.610586,74.21875,-747.55859375,-270.5078125,72.265625,32.71484375
1510194893.6144922,43.45703125,-883.30078125,-596.19140625,-67.87109375,-41.015625
1510194893.6183984,56.15234375,-1000.0,-835.9375,-19.53125,-30.2734375
1510194893.6223047,72.265625,-682.6171875,-340.33203125,154.78515625,9.765625
1510194893.626211,52.734375,-347.16796875,66.40625,146.484375,52.734375
1510194893.6432855,29.78515625,-720.21484375,-371.09375,-54.6875,51.26953125
1510194893.6471918,38.57421875,-1000.0,-833.984375,-96.19140625,59.5703125
1510194893.651098,55.17578125,-725.5859375,-466.30859375,120.1171875,74.70703125
1510194893.6550043,51.7578125,-358.88671875,38.0859375,171.875,34.1796875
1510194893.6589105,36.1328125,-668.45703125,-303.22265625,-25.390625,16.11328125
1510194893.6628168,38.0859375,-1000.0,-907.2265625,-119.140625,44.921875
1510194893.666723,37.109375,-844.23828125,-767.08984375,53.7109375,35.15625
1510194893.6706293,48.828125,-474.12109375,-133.7890625,194.3359375,11.71875
1510194893.6745355,47.36328125,-660.64453125,-279.78515625,26.85546875,31.73828125
1510194893.6784418,21.97265625,-996.58203125,-873.53515625,-109.86328125,17.08984375
1510194893.682348,27.34375,-922.8515625,-841.30859375,25.390625,18.06640625
1510194893.6862543,63.96484375,-546.875,-223.6328125,208.0078125,20.5078125
1510194893.688315,50.78125,-562.5,-179.19921875,100.5859375,-31.25
1510194893.6922212,11.23046875,-941.40625,-782.2265625,-107.91015625,-22.94921875
1510194893.6961274,15.625,-1000.0,-944.3359375,-82.03125,32.2265625
1510194893.7000337,30.76171875,-664.55078125,-370.60546875,93.75,60.546875
1510194893.70394,24.90234375,-543.45703125,-160.64453125,81.54296875,26.3671875
1510194893.7078462,1.46484375,-895.99609375,-710.9375,-124.51171875,41.015625
1510194893.7117524,-16.11328125,-1000.0,-1000.0,-197.265625,20.01953125
1510194893.7156587,-14.16015625,-807.6171875,-704.1015625,7.8125,-24.90234375
1510194893.719565,-13.671875,-621.09375,-313.4765625,115.72265625,14.6484375
1510194893.7234712,-35.64453125,-897.4609375,-725.09765625,-91.796875,33.203125
1510194893.7273774,-66.40625,-1000.0,-1000.0,-241.2109375,18.5546875
1510194893.7312837,-65.91796875,-915.0390625,-853.515625,-72.75390625,34.1796875
1510194893.732867,-56.640625,-715.33203125,-481.93359375,86.42578125,13.671875
1510194893.7367733,-83.49609375,-781.25,-560.546875,-68.84765625,5.37109375
1510194893.7406795,-100.5859375,-980.46875,-939.94140625,-251.46484375,0.48828125
1510194893.7445858,-83.49609375,-958.0078125,-950.68359375,-150.87890625,7.32421875
1510194893.748492,-68.359375,-707.51953125,-552.24609375,62.98828125,56.640625
1510194893.7523983,-55.17578125,-749.51171875,-552.734375,9.27734375,57.6171875
1510194893.7563045,-50.29296875,-978.515625,-922.36328125,-178.22265625,24.4140625
1510194893.7602108,-51.7578125,-964.84375,-989.74609375,-147.4609375,-26.3671875
1510194893.764117,-33.69140625,-977.5390625,-880.859375,51.26953125,7.32421875
1510194893.7680233,-12.20703125,-896.97265625,-737.79296875,45.41015625,14.16015625
1510194893.7719295,-18.06640625,-859.86328125,-817.3828125,-129.8828125,-4.39453125
1510194893.7758358,-12.6953125,-1000.0,-1000.0,-151.3671875,11.23046875
1510194893.7778814,14.16015625,-845.21484375,-832.51953125,37.109375,-27.83203125
1510194893.7817876,30.2734375,-520.01953125,-449.70703125,147.94921875,23.4375
1510194893.785694,28.3203125,-764.16015625,-706.54296875,-14.16015625,18.06640625
1510194893.7896001,11.23046875,-1000.0,-1000.0,-129.8828125,8.30078125
1510194893.7935064,6.34765625,-869.62890625,-870.1171875,27.34375,57.12890625
1510194893.7974126,25.87890625,-656.73828125,-592.7734375,174.31640625,7.32421875
1510194893.801319,47.8515625,-698.73046875,-652.34375,47.8515625,47.36328125
1510194893.8052251,52.734375,-907.2265625,-919.921875,-88.37890625,68.359375
1510194893.8091314,59.08203125,-998.046875,-1000.0,-4.39453125,-2.44140625
1510194893.8130376,77.1484375,-625.9765625,-636.71875,171.875,14.16015625
1510194893.816944,67.3828125,-394.04296875,-438.96484375,150.390625,18.5546875
1510194893.8208501,40.0390625,-773.4375,-818.359375,-25.87890625,24.4140625
1510194893.8234167,37.59765625,-1000.0,-1000.0,-44.43359375,10.25390625
1510194893.827323,62.5,-704.58984375,-768.5546875,131.8359375,-13.18359375
1510194893.8312292,75.1953125,-324.70703125,-447.265625,162.59765625,-1.46484375
1510194893.8351355,66.89453125,-659.66796875,-738.76953125,-13.18359375,59.08203125
1510194893.8390417,63.96484375,-1000.0,-1000.0,-75.1953125,23.4375
1510194893.842948,83.0078125,-854.4921875,-888.671875,112.79296875,-11.23046875
1510194893.8468542,97.65625,-592.28515625,-719.23828125,225.09765625,1.953125
1510194893.8507605,77.63671875,-770.01953125,-861.81640625,44.43359375,-6.34765625
1510194893.8546667,63.4765625,-1000.0,-993.1640625,-104.98046875,17.578125
1510194893.858573,80.078125,-877.44140625,-958.984375,39.0625,18.06640625
1510194893.8624792,96.19140625,-453.61328125,-722.65625,220.21484375,-2.9296875
1510194893.8663855,88.8671875,-468.75,-770.01953125,114.74609375,20.5078125
1510194893.8679423,64.94140625,-883.30078125,-987.79296875,-41.9921875,50.29296875
1510194893.8718486,64.94140625,-941.89453125,-988.28125,24.90234375,39.0625
1510194893.8757548,82.51953125,-537.109375,-813.4765625,196.77734375,42.48046875
1510194893.879661,76.66015625,-371.09375,-771.484375,178.22265625,73.2421875
1510194893.8835673,57.12890625,-684.08203125,-958.984375,3.90625,118.1640625
1510194893.8874736,58.59375,-994.140625,-977.05078125,-21.484375,85.9375
1510194893.8913798,78.61328125,-821.77734375,-948.2421875,154.296875,26.85546875
1510194893.895286,83.0078125,-757.32421875,-951.171875,187.5,-4.39453125
1510194893.8991923,63.96484375,-955.078125,-972.16796875,9.765625,40.0390625
1510194893.9030986,56.15234375,-982.91015625,-966.796875,-63.4765625,39.0625
1510194893.9070048,72.75390625,-896.484375,-982.91015625,95.703125,-32.2265625
1510194893.910911,81.0546875,-471.6796875,-883.30078125,189.94140625,44.921875
1510194893.9129944,68.84765625,-461.9140625,-878.41796875,41.015625,86.42578125
1510194893.9169006,63.4765625,-923.33984375,-980.46875,-69.82421875,29.78515625
1510194893.920807,70.80078125,-964.84375,-978.02734375,40.0390625,65.4296875
1510194893.9247131,83.49609375,-509.765625,-878.90625,200.68359375,95.21484375
1510194893.9286194,78.125,-474.609375,-887.20703125,121.09375,6.8359375
1510194893.9325256,55.17578125,-896.97265625,-980.95703125,-49.31640625,10.7421875
1510194893.936432,51.26953125,-1000.0,-970.703125,-4.8828125,-4.39453125
1510194893.9403381,56.640625,-810.546875,-958.49609375,162.59765625,-25.390625
1510194893.9442444,51.26953125,-504.39453125,-950.68359375,134.27734375,32.2265625
1510194893.9481506,40.52734375,-751.46484375,-970.21484375,-28.80859375,47.8515625
1510194893.952057,37.59765625,-1000.0,-970.703125,-66.89453125,0.0
1510194893.9559631,38.0859375,-878.90625,-969.23828125,126.46484375,6.34765625
1510194893.9580064,31.73828125,-625.48828125,-970.21484375,201.171875,16.11328125
1510194893.9619126,22.94921875,-781.25,-970.21484375,5.37109375,38.57421875
1510194893.965819,6.8359375,-1000.0,-970.21484375,-111.328125,-22.4609375
1510194893.9697251,18.5546875,-936.03515625,-970.21484375,42.48046875,-29.78515625
1510194893.9736314,56.640625,-829.58984375,-970.21484375,180.17578125,21.484375
1510194893.9775376,48.828125,-918.9453125,-970.21484375,24.90234375,38.57421875
1510194893.981444,24.90234375,-980.95703125,-970.21484375,-126.46484375,81.54296875
1510194893.9853501,44.921875,-981.4453125,-970.21484375,-14.6484375,1.953125
