timestamp,TP9,AF7,AF8,TP10,Right AUX
1510191127.367665,-68.359375,-970.21484375,-2.44140625,-27.83203125,-22.4609375
1510191127.3715713,-89.35546875,-970.21484375,29.78515625,148.4375,8.30078125
1510191127.3754776,-92.28515625,-970.21484375,3.90625,26.3671875,-62.01171875
1510191127.3793838,-105.95703125,-970.21484375,-19.53125,-163.57421875,-66.89453125
1510191127.38329,-133.30078125,-970.21484375,-4.39453125,-105.46875,-2.9296875
1510191127.3871963,-111.328125,-970.21484375,14.16015625,123.046875,3.90625
1510191127.3911026,-53.22265625,-970.21484375,8.30078125,105.95703125,40.52734375
1510191127.3950088,-23.4375,-970.21484375,-24.90234375,-78.61328125,38.57421875
1510191127.398915,-21.484375,-970.21484375,-37.109375,-76.171875,23.4375
1510191127.4028213,-41.9921875,-970.21484375,6.8359375,123.046875,77.1484375
1510191127.4067276,-35.15625,-970.21484375,20.01953125,162.109375,41.015625
1510191127.4106338,-37.109375,-970.21484375,-24.90234375,-12.20703125,-21.484375
1510191127.4126973,-68.359375,-970.21484375,-40.0390625,-67.3828125,-1.953125
1510191127.4166036,-31.73828125,-970.21484375,-11.23046875,109.86328125,-32.71484375
1510191127.4205098,18.06640625,-970.21484375,4.39453125,224.609375,-23.92578125
1510191127.424416,32.71484375,-969.7265625,-30.76171875,61.03515625,25.390625
1510191127.4283223,19.53125,-970.21484375,-56.15234375,-68.84765625,-50.29296875
1510191127.4322286,0.9765625,-971.19140625,-29.78515625,86.42578125,-31.25
1510191127.4361348,9.765625,-960.44921875,8.7890625,273.4375,63.4765625
1510191127.440041,17.578125,-963.37890625,-20.01953125,162.59765625,15.13671875
1510191127.4439473,-2.9296875,-970.703125,-58.10546875,-13.671875,-24.90234375
1510191127.4478536,-12.20703125,-974.609375,-31.25,37.59765625,12.20703125
1510191127.4517598,10.7421875,-946.77734375,2.9296875,230.46875,24.90234375
1510191127.455666,24.4140625,-942.87109375,-7.8125,229.00390625,-34.66796875
1510191127.4577296,42.96875,-971.19140625,-33.69140625,50.78125,-18.06640625
1510191127.4616358,56.15234375,-978.02734375,-30.2734375,14.16015625,6.8359375
1510191127.465542,46.875,-939.453125,2.44140625,212.40234375,-13.18359375
1510191127.4694483,35.15625,-926.7578125,11.23046875,304.19921875,0.48828125
1510191127.4733546,15.625,-974.12109375,-18.5546875,127.44140625,-5.37109375
1510191127.4772608,27.34375,-972.16796875,-30.76171875,4.8828125,26.3671875
1510191127.481167,19.53125,-961.42578125,-3.90625,158.69140625,37.109375
1510191127.4850733,8.7890625,-959.9609375,8.30078125,303.22265625,32.2265625
1510191127.4889796,43.45703125,-971.19140625,-9.765625,154.296875,9.27734375
1510191127.4928858,43.9453125,-970.21484375,-8.7890625,0.9765625,10.25390625
1510191127.496792,35.15625,-969.7265625,14.16015625,108.3984375,71.77734375
1510191127.5006983,10.25390625,-970.21484375,36.62109375,283.69140625,84.47265625
1510191127.502262,-3.41796875,-970.703125,30.76171875,174.31640625,-15.13671875
1510191127.5061684,-22.94921875,-967.28515625,15.625,-32.71484375,-28.80859375
1510191127.5100746,-37.109375,-977.05078125,16.6015625,-3.41796875,28.80859375
1510191127.5139809,-36.62109375,-948.2421875,41.50390625,180.17578125,22.4609375
1510191127.517887,-32.2265625,-928.7109375,53.22265625,164.55078125,47.8515625
1510191127.5217934,-43.9453125,-965.8203125,27.83203125,-37.109375,68.359375
1510191127.5256996,-79.58984375,-979.4921875,14.6484375,-95.703125,79.58984375
1510191127.5296059,-78.61328125,-949.70703125,39.0625,97.16796875,91.30859375
1510191127.533512,-32.71484375,-876.953125,60.05859375,189.453125,56.640625
1510191127.5374184,-8.7890625,-932.6171875,22.94921875,16.6015625,1.953125
1510191127.5413246,-20.01953125,-979.98046875,-11.71875,-98.6328125,-28.80859375
1510191127.5452309,-9.27734375,-970.21484375,9.27734375,49.31640625,-10.7421875
1510191127.5473127,7.8125,-871.58203125,31.73828125,221.19140625,-35.15625
1510191127.551219,22.94921875,-877.44140625,4.8828125,121.58203125,1.953125
1510191127.5551252,23.92578125,-977.5390625,-23.92578125,-34.66796875,26.85546875
1510191127.5590315,29.78515625,-986.328125,-10.25390625,47.36328125,-5.37109375
1510191127.5629377,57.12890625,-822.75390625,19.04296875,250.9765625,23.4375
1510191127.566844,62.01171875,-838.8671875,-2.44140625,211.9140625,38.0859375
1510191127.5707502,41.50390625,-980.46875,-47.8515625,24.4140625,0.0
1510191127.5746565,23.92578125,-995.60546875,-43.9453125,6.34765625,-11.23046875
1510191127.5785627,60.05859375,-850.5859375,1.953125,206.0546875,45.8984375
1510191127.582469,111.328125,-744.140625,-1.46484375,274.4140625,79.1015625
1510191127.5863752,102.5390625,-951.171875,-43.45703125,84.9609375,18.5546875
1510191127.5902815,88.37890625,-993.65234375,-48.33984375,-0.9765625,-12.6953125
1510191127.607356,73.73046875,-928.22265625,-19.04296875,180.6640625,-45.8984375
1510191127.6112623,81.54296875,-870.1171875,-4.39453125,285.64453125,0.0
1510191127.6151686,80.078125,-955.078125,-30.76171875,113.76953125,7.32421875
1510191127.6190748,60.546875,-979.4921875,-47.36328125,-22.4609375,-53.22265625
1510191127.622981,84.9609375,-964.35546875,-25.390625,99.12109375,-34.1796875
1510191127.6268873,78.61328125,-971.6796875,-8.7890625,252.44140625,46.38671875
1510191127.6307936,69.3359375,-970.21484375,-31.73828125,129.8828125,63.4765625
1510191127.6346998,104.00390625,-969.7265625,-50.29296875,-17.578125,24.90234375
1510191127.638606,122.0703125,-971.19140625,-34.66796875,59.08203125,-7.32421875
1510191127.6425123,90.8203125,-968.75,3.41796875,237.3046875,-10.7421875
1510191127.6464186,66.40625,-962.890625,4.39453125,199.70703125,29.78515625
1510191127.6503248,82.51953125,-966.30859375,-31.73828125,10.25390625,-32.2265625
1510191127.6523867,87.890625,-976.5625,-34.1796875,-18.5546875,-59.5703125
1510191127.656293,60.05859375,-953.61328125,3.41796875,192.87109375,45.8984375
1510191127.6601992,25.87890625,-936.5234375,11.71875,240.234375,27.34375
1510191127.6641054,49.8046875,-970.703125,-22.94921875,0.48828125,1.46484375
1510191127.6680117,75.1953125,-971.6796875,-46.875,-84.47265625,0.0
1510191127.671918,89.84375,-968.75,-18.06640625,113.76953125,-13.18359375
1510191127.6758242,90.8203125,-970.21484375,12.20703125,226.07421875,39.55078125
1510191127.6797304,71.2890625,-970.21484375,-9.765625,55.17578125,34.1796875
1510191127.6836367,80.56640625,-970.21484375,-35.15625,-70.80078125,-28.3203125
1510191127.687543,92.7734375,-970.21484375,-26.3671875,56.640625,-29.78515625
1510191127.6914492,99.12109375,-969.7265625,5.37109375,241.69921875,4.8828125
1510191127.6953554,86.9140625,-970.21484375,-3.41796875,138.18359375,47.8515625
1510191127.7124298,57.12890625,-970.21484375,-39.0625,-52.24609375,53.22265625
1510191127.716336,37.109375,-970.21484375,-30.76171875,-8.30078125,33.69140625
1510191127.7202423,31.25,-970.21484375,9.765625,170.41015625,43.45703125
1510191127.7241485,66.89453125,-970.21484375,7.8125,161.62109375,70.80078125
1510191127.7280548,87.890625,-970.21484375,-41.50390625,-22.94921875,41.50390625
1510191127.731961,79.58984375,-970.21484375,-52.24609375,-64.453125,-20.01953125
1510191127.7358673,84.9609375,-970.21484375,-5.859375,131.8359375,54.6875
1510191127.7397735,82.51953125,-970.21484375,7.8125,207.51953125,57.6171875
1510191127.7436798,87.890625,-970.21484375,-37.59765625,11.23046875,1.46484375
1510191127.747586,83.49609375,-970.21484375,-49.31640625,-94.23828125,9.27734375
1510191127.7514923,14.6484375,-970.21484375,-2.9296875,75.1953125,-7.8125
1510191127.7553985,0.0,-970.21484375,14.6484375,228.02734375,18.06640625
1510191127.7424498,64.453125,-970.21484375,-17.578125,89.35546875,17.578125
1510191127.746356,89.84375,-970.21484375,-32.2265625,-84.47265625,-12.20703125
1510191127.7502623,73.2421875,-970.21484375,-8.7890625,25.87890625,7.32421875
1510191127.7541685,69.3359375,-970.21484375,18.5546875,232.421875,54.19921875
1510191127.7580748,78.125,-970.21484375,-1.46484375,146.484375,16.6015625
1510191127.761981,60.546875,-970.21484375,-35.15625,-44.921875,-32.71484375
1510191127.7658873,42.48046875,-970.21484375,-20.99609375,-23.4375,-29.78515625
1510191127.7697935,47.8515625,-970.21484375,13.671875,186.03515625,-31.73828125
1510191127.7736998,62.01171875,-970.21484375,12.20703125,208.49609375,-41.9921875
1510191127.777606,67.87109375,-970.21484375,-13.671875,15.13671875,-51.26953125
1510191127.7815123,47.36328125,-970.21484375,-18.06640625,-42.48046875,-41.015625
1510191127.7854185,25.87890625,-970.21484375,15.625,147.4609375,12.6953125
1510191127.787485,34.66796875,-970.21484375,19.53125,234.375,35.64453125
1510191127.7913911,39.55078125,-970.21484375,-2.44140625,34.66796875,5.859375
1510191127.7952974,59.5703125,-970.21484375,-16.11328125,-90.8203125,15.625
1510191127.7992036,65.4296875,-970.21484375,-6.8359375,59.5703125,-18.06640625
1510191127.80311,40.0390625,-970.21484375,23.4375,206.0546875,-45.8984375
1510191127.8070161,36.62109375,-970.21484375,2.9296875,78.125,41.015625
1510191127.8109224,46.875,-970.21484375,-27.83203125,-72.75390625,5.859375
1510191127.8148286,41.9921875,-970.21484375,-19.53125,2.44140625,-43.45703125
1510191127.818735,20.99609375,-970.21484375,11.71875,195.80078125,-35.64453125
1510191127.8226411,41.015625,-970.21484375,22.4609375,146.97265625,-12.6953125
1510191127.8265474,45.41015625,-970.21484375,-7.32421875,-27.34375,-7.8125
1510191127.8304536,22.94921875,-970.21484375,-15.13671875,-37.59765625,-17.08984375
1510191127.8325133,33.203125,-970.21484375,18.06640625,155.2734375,-0.9765625
1510191127.8364196,49.31640625,-970.21484375,24.90234375,209.9609375,-2.9296875
1510191127.8403258,48.828125,-970.21484375,-11.71875,2.9296875,-4.39453125
1510191127.844232,43.9453125,-970.21484375,-22.94921875,-67.87109375,-20.01953125
1510191127.8481383,37.109375,-970.21484375,9.765625,120.60546875,-11.23046875
1510191127.8520446,24.90234375,-970.21484375,23.92578125,239.2578125,-16.6015625
1510191127.8559508,16.11328125,-970.21484375,-0.48828125,81.0546875,-2.44140625
1510191127.859857,20.01953125,-970.21484375,-29.78515625,-59.5703125,12.6953125
1510191127.8637633,41.50390625,-970.21484375,-2.9296875,79.1015625,20.5078125
1510191127.8676696,54.6875,-970.21484375,34.1796875,256.8359375,2.44140625
1510191127.8715758,46.875,-969.7265625,1.46484375,131.34765625,-13.671875
1510191127.875482,31.25,-970.21484375,-27.34375,-57.12890625,-20.99609375
1510191127.877566,39.0625,-970.703125,-9.27734375,4.39453125,-55.17578125
1510191127.8814723,41.9921875,-964.84375,21.97265625,205.56640625,0.0
1510191127.8853786,19.53125,-966.796875,10.7421875,193.359375,22.94921875
1510191127.8892848,-4.39453125,-971.19140625,-18.06640625,11.71875,9.27734375
1510191127.893191,-5.859375,-969.7265625,-16.11328125,-11.71875,16.11328125
1510191127.8970973,32.2265625,-970.21484375,8.30078125,183.59375,-22.94921875
1510191127.9010036,53.7109375,-970.703125,12.20703125,233.3984375,-21.97265625
1510191127.9049098,65.91796875,-967.28515625,-15.625,38.57421875,-31.73828125
1510191127.908816,56.640625,-977.05078125,-22.4609375,-71.2890625,-65.91796875
1510191127.9127223,48.828125,-950.1953125,8.30078125,103.515625,28.3203125
1510191127.9166286,30.76171875,-928.22265625,28.3203125,265.625,75.68359375
1510191127.9205348,14.16015625,-970.21484375,-2.44140625,100.5859375,1.953125
1510191127.92258,9.765625,-972.16796875,-16.11328125,-54.6875,-16.11328125
1510191127.9264863,11.23046875,-968.26171875,10.7421875,57.6171875,60.05859375
1510191127.9303925,42.96875,-970.21484375,24.90234375,243.1640625,47.8515625
1510191127.9342988,26.85546875,-970.21484375,7.32421875,163.0859375,4.8828125
1510191127.938205,20.01953125,-970.21484375,-24.90234375,-20.01953125,19.53125
1510191127.9421113,29.78515625,-970.21484375,-26.3671875,20.5078125,10.25390625
1510191127.9460175,20.01953125,-970.21484375,2.44140625,226.07421875,17.578125
1510191127.9499238,35.15625,-970.703125,8.7890625,210.44921875,20.01953125
1510191127.95383,43.45703125,-967.28515625,-8.30078125,-0.9765625,-9.27734375
1510191127.9577363,9.765625,-976.07421875,-21.97265625,-47.36328125,-12.20703125
1510191127.9616425,-4.39453125,-952.63671875,6.8359375,148.92578125,27.34375
1510191127.9655488,28.3203125,-930.17578125,20.01953125,242.1875,25.87890625
1510191127.9976304,35.15625,-966.30859375,-11.23046875,83.49609375,-6.8359375
1510191128.0015366,16.6015625,-972.65625,-20.5078125,-23.92578125,7.32421875
1510191128.0054429,41.015625,-973.6328125,11.71875,119.62890625,36.62109375
1510191128.009349,60.546875,-897.94921875,40.0390625,270.99609375,40.52734375
1510191128.0132554,49.8046875,-916.9921875,15.13671875,109.375,48.33984375
1510191128.0171616,49.8046875,-979.4921875,-21.97265625,-61.5234375,-1.953125
1510191128.0210679,36.62109375,-973.14453125,-11.71875,45.8984375,29.78515625
1510191128.024974,43.9453125,-939.453125,25.390625,231.4453125,16.11328125
1510191128.0288804,50.78125,-932.6171875,18.5546875,166.9921875,-3.41796875
1510191128.0327866,-6.8359375,-973.14453125,-12.20703125,-30.76171875,8.7890625
1510191128.0366929,-5.37109375,-973.14453125,-16.11328125,-20.5078125,-13.18359375
1510191128.040599,26.3671875,-960.9375,19.04296875,190.91796875,-9.27734375
1510191128.0276518,11.23046875,-942.87109375,26.3671875,219.23828125,13.671875
1510191128.031558,26.3671875,-967.28515625,-9.27734375,25.87890625,2.44140625
1510191128.0354643,32.71484375,-972.65625,-18.5546875,-54.19921875,10.25390625
1510191128.0393705,33.203125,-968.75,12.20703125,115.72265625,-5.37109375
1510191128.0432768,44.921875,-969.7265625,26.3671875,242.1875,-11.71875
1510191128.047183,38.57421875,-969.7265625,-7.32421875,62.98828125,28.3203125
1510191128.0510893,6.34765625,-970.21484375,-24.4140625,-93.75,31.25
1510191128.0549955,-13.18359375,-970.21484375,5.859375,55.17578125,45.8984375
1510191128.0589018,16.6015625,-964.84375,22.4609375,210.9375,35.15625
1510191128.062808,36.62109375,-967.28515625,-2.44140625,81.0546875,-3.41796875
1510191128.0667143,31.73828125,-971.19140625,-17.578125,-71.2890625,15.625
1510191128.0706205,18.5546875,-969.7265625,-3.90625,21.97265625,9.27734375
1510191128.0726836,19.53125,-970.21484375,23.4375,222.65625,0.48828125
1510191128.0765898,9.27734375,-970.21484375,5.859375,147.94921875,-27.34375
1510191128.080496,17.08984375,-970.21484375,-11.23046875,-56.15234375,-52.24609375
1510191128.0844023,23.4375,-970.21484375,1.46484375,-46.38671875,-14.6484375
1510191128.0883086,2.44140625,-970.21484375,25.390625,153.3203125,-8.7890625
1510191128.0922148,-23.92578125,-970.21484375,30.2734375,205.078125,13.671875
1510191128.096121,-30.76171875,-970.21484375,3.90625,12.6953125,3.90625
1510191128.1000273,-10.7421875,-970.21484375,-3.90625,-79.1015625,-14.16015625
1510191128.1039336,22.94921875,-970.21484375,15.625,107.421875,36.1328125
1510191128.1078398,41.9921875,-970.21484375,23.4375,219.23828125,23.92578125
1510191128.111746,14.16015625,-970.21484375,11.71875,45.8984375,-23.4375
1510191128.1156523,12.6953125,-970.21484375,-7.8125,-74.21875,-3.90625
1510191128.1177175,37.109375,-970.21484375,5.859375,55.17578125,40.0390625
1510191128.1216238,27.83203125,-970.21484375,33.69140625,226.07421875,27.34375
1510191128.12553,-1.46484375,-970.21484375,15.625,112.79296875,-12.6953125
1510191128.1294363,-9.27734375,-970.21484375,-15.625,-67.3828125,18.06640625
1510191128.1333425,-6.8359375,-970.21484375,-5.859375,-8.7890625,10.7421875
1510191128.1372488,-29.296875,-970.21484375,20.01953125,188.96484375,-29.78515625
1510191128.141155,-17.578125,-970.21484375,16.11328125,167.96875,-33.203125
1510191128.1450613,17.578125,-968.75,-7.32421875,-22.4609375,-11.23046875
1510191128.1489675,12.6953125,-973.14453125,-13.18359375,-59.5703125,32.2265625
1510191128.1528738,32.2265625,-960.9375,20.5078125,143.5546875,40.52734375
1510191128.15678,43.9453125,-951.171875,35.64453125,210.9375,17.08984375
1510191128.1606863,18.06640625,-970.21484375,-2.9296875,10.25390625,4.39453125
1510191128.1627488,-5.37109375,-970.703125,-18.5546875,-85.44921875,-23.4375
1510191128.166655,-9.27734375,-969.23828125,17.578125,93.75,11.23046875
1510191128.1705613,-5.859375,-970.21484375,33.203125,242.1875,-1.46484375
1510191128.1744676,7.8125,-970.21484375,-2.44140625,62.98828125,-67.87109375
1510191128.1783738,15.625,-970.21484375,-24.90234375,-102.5390625,-32.71484375
1510191128.18228,10.25390625,-970.21484375,-3.90625,36.62109375,19.04296875
1510191128.1861863,40.0390625,-970.21484375,23.4375,226.5625,29.296875
1510191128.1900926,40.52734375,-970.21484375,-1.46484375,130.859375,4.39453125
1510191128.1939988,-6.8359375,-967.28515625,-28.80859375,-55.6640625,-7.32421875
1510191128.197905,10.7421875,-979.00390625,-3.41796875,-14.6484375,0.9765625
1510191128.2018113,31.73828125,-931.15234375,29.78515625,212.890625,49.8046875
1510191128.2057176,28.3203125,-918.9453125,19.53125,203.61328125,34.66796875
1510191128.2072792,22.94921875,-972.16796875,-15.13671875,-19.04296875,-67.87109375
1510191128.2111855,-6.34765625,-979.00390625,-14.16015625,-66.40625,-46.875
1510191128.2150917,-5.859375,-932.6171875,21.484375,122.55859375,83.0078125
1510191128.218998,36.62109375,-921.875,21.97265625,216.30859375,40.52734375
1510191128.2229042,18.06640625,-976.07421875,-0.9765625,41.9921875,-14.6484375
1510191128.2268105,-10.25390625,-969.7265625,-15.13671875,-75.68359375,24.90234375
1510191128.2307167,5.859375,-969.23828125,-6.8359375,80.56640625,1.953125
1510191128.234623,25.87890625,-970.21484375,18.06640625,225.5859375,0.9765625
1510191128.2385292,26.85546875,-970.21484375,4.8828125,80.078125,40.52734375
1510191128.2424355,-17.08984375,-970.21484375,-15.13671875,-67.87109375,13.671875
1510191128.2463417,-9.765625,-970.21484375,-5.859375,39.55078125,14.6484375
1510191128.250248,39.0625,-970.21484375,14.6484375,218.26171875,7.8125
1510191128.2523127,47.8515625,-970.21484375,11.23046875,144.53125,-14.6484375
1510191128.256219,34.1796875,-969.7265625,-11.23046875,-34.66796875,9.765625
1510191128.2601252,21.97265625,-970.703125,-13.671875,-33.203125,46.875
1510191128.2640314,29.296875,-967.28515625,10.7421875,176.7578125,57.6171875
1510191128.2679377,40.0390625,-967.7734375,17.578125,229.4921875,-14.6484375
1510191128.271844,-7.32421875,-966.30859375,-8.30078125,21.97265625,-21.484375
1510191128.2757502,-31.73828125,-977.5390625,-22.94921875,-83.49609375,24.90234375
1510191128.2796564,2.44140625,-953.61328125,9.27734375,88.37890625,-1.46484375
1510191128.2835627,4.8828125,-866.69921875,35.15625,215.33203125,-4.8828125
1510191128.287469,-10.7421875,-923.33984375,5.859375,35.15625,-10.7421875
1510191128.2913752,13.18359375,-984.375,-18.5546875,-92.7734375,-13.18359375
1510191128.2952814,20.99609375,-965.33203125,8.30078125,59.08203125,23.92578125
1510191128.297343,18.5546875,-887.20703125,29.78515625,221.6796875,42.96875
1510191128.3012493,28.3203125,-919.921875,0.9765625,110.3515625,13.671875
1510191128.3051555,3.41796875,-982.421875,-27.34375,-59.08203125,-6.8359375
1510191128.3090618,-5.859375,-966.30859375,-11.71875,10.7421875,-8.7890625
1510191128.312968,-15.13671875,-967.7734375,19.53125,223.14453125,-10.7421875
1510191128.3168743,-22.4609375,-967.7734375,4.8828125,170.8984375,-24.4140625
1510191128.3207805,9.27734375,-970.703125,-32.71484375,-29.78515625,-22.4609375
1510191128.3246868,35.15625,-970.21484375,-24.90234375,-45.8984375,19.53125
1510191128.328593,40.52734375,-970.21484375,15.13671875,153.80859375,20.99609375
1510191128.3324993,51.26953125,-970.21484375,10.25390625,218.26171875,4.39453125
1510191128.3364055,39.55078125,-970.21484375,-28.3203125,12.6953125,-33.203125
1510191128.3403118,41.50390625,-970.21484375,-38.0859375,-90.33203125,-27.34375
1510191128.3428774,41.9921875,-970.21484375,-10.25390625,97.16796875,5.37109375
1510191128.3467836,8.30078125,-970.21484375,12.6953125,233.3984375,21.97265625
1510191128.35069,0.0,-970.21484375,-14.6484375,57.12890625,30.76171875
1510191128.3545961,2.44140625,-970.21484375,-38.57421875,-93.75,11.23046875
1510191128.3585024,5.859375,-970.21484375,-10.25390625,44.921875,12.6953125
1510191128.3624086,7.8125,-970.21484375,13.18359375,235.83984375,18.5546875
1510191128.366315,5.859375,-970.21484375,-2.44140625,119.62890625,-24.4140625
1510191128.3702211,0.48828125,-970.21484375,-4.8828125,-59.5703125,41.9921875
1510191128.3741274,16.11328125,-970.21484375,7.32421875,0.9765625,41.50390625
1510191128.3780336,17.08984375,-970.21484375,31.25,200.1953125,-31.73828125
1510191128.38194,-8.30078125,-970.21484375,34.66796875,190.4296875,18.06640625
1510191128.3858461,-3.90625,-968.26171875,7.32421875,-6.34765625,75.68359375
1510191128.4024374,14.6484375,-973.14453125,0.0,-57.12890625,41.50390625
1510191128.4063437,39.0625,-963.8671875,24.4140625,151.3671875,13.18359375
1510191128.41025,41.50390625,-931.640625,26.85546875,237.3046875,47.8515625
1510191128.4141562,30.2734375,-955.56640625,-0.9765625,43.45703125,52.24609375
1510191128.4180624,25.87890625,-975.09765625,-18.5546875,-83.0078125,2.44140625
1510191128.4219687,57.12890625,-967.28515625,3.90625,86.9140625,10.25390625
1510191128.425875,64.453125,-969.7265625,31.25,248.53515625,-6.8359375
1510191128.4297812,14.16015625,-968.75,17.578125,69.82421875,-7.32421875
1510191128.4336874,-5.859375,-966.796875,-8.30078125,-75.1953125,50.78125
1510191128.4375937,8.30078125,-985.3515625,-2.44140625,73.2421875,35.15625
1510191128.4415,57.12890625,-864.2578125,34.66796875,247.0703125,24.4140625
1510191128.4454062,76.66015625,-854.4921875,31.25,161.62109375,40.0390625
1510191128.4474707,86.42578125,-969.7265625,0.0,-2.44140625,45.41015625
1510191128.451377,98.14453125,-1000.0,8.30078125,36.62109375,13.18359375
1510191128.4552832,80.56640625,-796.875,48.828125,255.859375,-13.18359375
1510191128.4591894,83.0078125,-627.44140625,43.9453125,280.76171875,-5.37109375
1510191128.4630957,91.796875,-868.1640625,3.90625,88.37890625,-16.11328125
1510191128.467002,109.86328125,-1000.0,-3.90625,10.25390625,-37.109375
1510191128.4709082,119.62890625,-876.46484375,30.76171875,204.58984375,-37.109375
1510191128.4748144,130.859375,-550.78125,53.7109375,348.6328125,-27.83203125
1510191128.4787207,166.015625,-700.1953125,14.6484375,175.78125,-42.96875
1510191128.482627,171.38671875,-1000.0,-4.8828125,26.85546875,0.48828125
1510191128.4865332,183.59375,-842.28515625,34.1796875,171.38671875,14.16015625
1510191128.4904394,184.5703125,-372.0703125,58.10546875,347.65625,-41.50390625
1510191128.4924836,153.80859375,-503.41796875,37.109375,205.078125,-59.5703125
1510191128.4963899,155.2734375,-947.75390625,9.765625,29.78515625,-35.15625
1510191128.500296,140.625,-837.890625,28.3203125,139.6484375,16.11328125
1510191128.5042024,134.27734375,-444.82421875,54.19921875,333.49609375,23.92578125
1510191128.5081086,155.2734375,-411.1328125,41.9921875,236.328125,51.7578125
1510191128.5120149,132.32421875,-807.6171875,11.71875,37.59765625,51.7578125
1510191128.515921,112.3046875,-1000.0,12.6953125,50.29296875,15.625
1510191128.5198274,134.27734375,-464.84375,54.6875,240.234375,48.33984375
1510191128.5237336,138.671875,-423.33984375,46.875,269.04296875,23.92578125
1510191128.5276399,100.5859375,-838.8671875,20.5078125,35.15625,-28.80859375
1510191128.531546,81.54296875,-807.12890625,22.94921875,-54.6875,-28.80859375
1510191128.5354524,51.7578125,-527.83203125,40.0390625,152.83203125,3.41796875
1510191128.5380175,11.23046875,-99.12109375,54.19921875,259.765625,71.77734375
1510191128.5419238,39.55078125,-253.41796875,28.80859375,72.75390625,59.5703125
1510191128.54583,61.5234375,-742.67578125,6.34765625,-80.078125,9.765625
1510191128.5497363,40.52734375,-819.3359375,19.04296875,55.17578125,-11.23046875
1510191128.5536425,29.296875,-382.8125,43.45703125,227.05078125,45.8984375
1510191128.5575488,18.5546875,-487.79296875,22.94921875,94.23828125,88.37890625
1510191128.561455,-8.7890625,-958.49609375,-8.30078125,-99.609375,-32.2265625
1510191128.5653613,-21.97265625,-999.0234375,0.9765625,-51.7578125,-33.203125
1510191128.5692675,-19.04296875,-872.0703125,24.90234375,163.0859375,43.45703125
1510191128.5731738,-38.0859375,-780.2734375,20.99609375,116.69921875,-1.953125
1510191128.57708,-62.5,-937.5,-18.5546875,-116.2109375,-22.94921875
1510191128.5809863,-73.73046875,-1000.0,-19.04296875,-123.046875,5.859375
1510191128.582546,-62.98828125,-885.7421875,22.4609375,83.0078125,32.2265625
1510191128.5864522,-52.24609375,-772.4609375,38.57421875,121.09375,59.5703125
1510191128.5903585,-81.0546875,-911.1328125,5.859375,-78.125,44.921875
1510191128.5942647,-92.7734375,-983.3984375,-13.18359375,-170.8984375,-4.8828125
1510191128.598171,-92.28515625,-963.37890625,14.6484375,12.6953125,37.109375
1510191128.6020772,-110.3515625,-970.21484375,30.76171875,147.94921875,1.953125
1510191128.6059835,-94.23828125,-970.21484375,1.953125,-20.01953125,-24.4140625
1510191128.6098897,-67.87109375,-970.21484375,-24.4140625,-174.31640625,7.32421875
1510191128.613796,-66.40625,-970.21484375,6.34765625,-52.734375,18.5546875
1510191128.6177022,-77.63671875,-970.21484375,39.0625,160.15625,32.2265625
1510191128.6216085,-93.75,-970.21484375,15.13671875,61.5234375,22.94921875
1510191128.6255147,-130.859375,-970.21484375,-15.13671875,-139.6484375,-27.83203125
1510191128.6275778,-155.2734375,-970.21484375,4.8828125,-82.51953125,-14.6484375
1510191128.631484,-115.234375,-969.23828125,43.9453125,146.484375,60.546875
1510191128.6353903,-67.87109375,-969.7265625,24.90234375,139.6484375,42.48046875
1510191128.6392965,-79.58984375,-970.21484375,-8.30078125,-56.15234375,-33.69140625
1510191128.6432028,-100.5859375,-970.21484375,-10.7421875,-102.05078125,-49.31640625
1510191128.647109,-91.30859375,-970.21484375,14.6484375,113.76953125,-46.38671875
1510191128.6510153,-104.98046875,-970.21484375,19.04296875,230.95703125,-16.11328125
1510191128.6549215,-123.046875,-970.21484375,-3.90625,9.765625,-15.625
1510191128.6588278,-111.81640625,-970.21484375,2.9296875,-120.60546875,-33.203125
1510191128.662734,-102.05078125,-970.21484375,31.73828125,86.9140625,24.4140625
1510191128.6666403,-104.00390625,-970.21484375,46.875,245.60546875,41.50390625
1510191128.6705465,-126.46484375,-970.21484375,19.53125,82.51953125,14.6484375
1510191128.6726096,-131.34765625,-970.21484375,-3.90625,-88.8671875,10.7421875
1510191128.6765158,-96.19140625,-970.21484375,14.16015625,35.15625,8.7890625
1510191128.680422,-81.54296875,-970.21484375,45.41015625,246.58203125,24.4140625
1510191128.6843283,-103.515625,-970.21484375,34.1796875,156.73828125,-22.4609375
1510191128.6882346,-126.46484375,-970.21484375,9.765625,-35.15625,-29.296875
1510191128.6921408,-128.41796875,-970.21484375,12.6953125,8.30078125,27.83203125
1510191128.696047,-104.98046875,-970.21484375,39.55078125,210.9375,50.78125
1510191128.6999533,-101.5625,-970.21484375,41.9921875,192.3828125,57.12890625
1510191128.7038596,-124.51171875,-970.21484375,17.578125,-18.06640625,42.96875
1510191128.7077658,-119.140625,-970.21484375,6.34765625,-76.171875,30.2734375
1510191128.711672,-92.7734375,-970.21484375,28.80859375,145.01953125,-47.36328125
1510191128.7155783,-97.16796875,-970.21484375,41.9921875,263.18359375,-33.69140625
1510191128.7176418,-107.421875,-970.21484375,19.53125,58.10546875,13.18359375
1510191128.721548,-104.00390625,-970.21484375,1.46484375,-73.2421875,9.27734375
1510191128.7254543,-87.890625,-970.21484375,21.484375,88.37890625,0.9765625
1510191128.7293606,-80.56640625,-970.21484375,50.78125,242.1875,-6.34765625
1510191128.7332668,-93.75,-970.21484375,29.296875,94.23828125,3.90625
1510191128.737173,-108.88671875,-970.21484375,-0.48828125,-73.73046875,19.53125
1510191128.7410793,-110.83984375,-970.21484375,17.578125,9.765625,61.03515625
1510191128.7449856,-90.8203125,-970.21484375,51.7578125,217.7734375,62.01171875
1510191128.7488918,-100.5859375,-970.21484375,37.59765625,171.38671875,46.875
1510191128.752798,-141.6015625,-970.21484375,1.953125,-34.1796875,-17.578125
1510191128.7567043,-119.62890625,-970.21484375,-1.46484375,-38.57421875,-35.15625
1510191128.7606106,-54.19921875,-970.21484375,32.2265625,192.87109375,36.1328125
1510191128.7776837,-51.26953125,-970.21484375,32.2265625,228.02734375,64.94140625
1510191128.78159,-90.33203125,-970.21484375,-2.9296875,2.9296875,89.35546875
1510191128.7854962,-89.84375,-970.21484375,-8.7890625,-75.1953125,73.2421875
1510191128.7894025,-60.546875,-970.21484375,25.87890625,139.6484375,3.41796875
1510191128.7933087,-58.59375,-970.21484375,39.55078125,266.11328125,1.46484375
1510191128.797215,-68.84765625,-970.21484375,11.23046875,81.0546875,27.34375
1510191128.8011212,-80.56640625,-970.21484375,-6.34765625,-66.40625,13.18359375
1510191128.8050275,-54.6875,-970.21484375,20.01953125,81.54296875,35.64453125
1510191128.8089337,-10.25390625,-970.21484375,41.9921875,273.4375,26.85546875
1510191128.81284,-43.45703125,-970.21484375,10.25390625,112.79296875,-4.39453125
1510191128.8167462,-74.21875,-970.21484375,-11.71875,-93.26171875,14.6484375
1510191128.8206525,-44.43359375,-970.21484375,12.6953125,-0.48828125,-24.4140625
1510191128.8227155,-14.16015625,-970.21484375,42.48046875,214.84375,20.5078125
1510191128.8266218,-17.08984375,-970.21484375,41.50390625,167.48046875,86.9140625
1510191128.830528,-22.94921875,-970.21484375,17.578125,-31.25,6.34765625
1510191128.8344343,-21.97265625,-970.21484375,19.04296875,-41.50390625,-5.37109375
1510191128.8383405,-3.90625,-970.21484375,49.8046875,179.6875,-19.53125
1510191128.8422468,3.41796875,-970.21484375,51.26953125,238.28125,-17.08984375
1510191128.846153,-22.94921875,-970.21484375,24.4140625,23.92578125,-6.8359375
1510191128.8500593,-46.875,-970.21484375,16.6015625,-85.9375,23.92578125
1510191128.8539655,-20.99609375,-970.21484375,29.78515625,91.30859375,16.6015625
1510191128.8578718,13.671875,-970.21484375,36.62109375,253.41796875,-23.4375
1510191128.861778,-15.13671875,-970.21484375,19.04296875,82.03125,-22.94921875
1510191128.8656843,-60.546875,-970.21484375,-0.48828125,-100.5859375,-2.9296875
1510191128.8677478,-24.90234375,-970.21484375,21.97265625,34.1796875,9.27734375
1510191128.871654,4.8828125,-970.21484375,46.38671875,238.28125,-20.01953125
1510191128.8755603,-24.4140625,-970.21484375,28.3203125,132.8125,10.25390625
1510191128.8794665,-22.94921875,-970.21484375,3.41796875,-57.6171875,-43.45703125
1510191128.8833728,-2.9296875,-970.21484375,15.625,-5.859375,-68.359375
1510191128.887279,35.15625,-970.21484375,32.71484375,208.0078125,-30.2734375
1510191128.8911853,36.1328125,-970.21484375,28.3203125,201.66015625,-30.76171875
1510191128.8950915,-13.18359375,-970.21484375,4.39453125,-25.390625,-24.4140625
1510191128.8989978,-43.45703125,-970.21484375,-12.6953125,-74.70703125,-38.0859375
1510191128.902904,-6.34765625,-970.21484375,28.80859375,166.015625,13.18359375
1510191128.9068103,19.53125,-970.21484375,48.828125,243.1640625,42.48046875
1510191128.9107165,-8.7890625,-970.21484375,13.671875,34.1796875,-14.16015625
1510191128.9122798,-31.73828125,-970.21484375,4.8828125,-85.9375,1.46484375
1510191128.916186,-16.6015625,-970.21484375,32.2265625,78.125,9.765625
1510191128.9200923,13.671875,-970.21484375,53.22265625,238.76953125,-29.78515625
1510191128.9239986,12.6953125,-970.21484375,25.390625,83.49609375,0.48828125
1510191128.9279048,-28.80859375,-970.21484375,4.8828125,-88.37890625,12.20703125
1510191128.931811,-20.99609375,-970.21484375,31.25,26.3671875,50.29296875
1510191128.9357173,46.875,-970.21484375,63.4765625,245.60546875,54.6875
1510191128.9396236,30.76171875,-970.21484375,45.8984375,166.50390625,53.7109375
1510191128.9435298,-7.8125,-970.21484375,9.765625,-48.828125,20.01953125
1510191128.947436,-12.6953125,-970.21484375,21.484375,-18.06640625,25.87890625
1510191128.9513423,1.46484375,-970.21484375,53.7109375,200.68359375,29.78515625
1510191128.9552486,12.20703125,-970.21484375,47.36328125,207.51953125,0.48828125
1510191128.957314,-24.90234375,-970.21484375,16.11328125,-6.34765625,10.7421875
1510191128.9612203,-21.484375,-970.21484375,7.32421875,-70.3125,4.8828125
1510191128.9651265,42.96875,-970.21484375,42.96875,137.20703125,30.76171875
1510191128.9690328,48.828125,-970.21484375,53.22265625,245.60546875,26.85546875
1510191128.972939,36.1328125,-970.21484375,15.625,45.41015625,5.859375
1510191128.9768453,23.92578125,-970.21484375,-7.8125,-121.09375,-7.32421875
1510191128.9807515,37.59765625,-970.21484375,9.27734375,40.52734375,-0.9765625
1510191128.9846578,63.4765625,-970.21484375,29.78515625,235.3515625,37.59765625
1510191128.988564,20.01953125,-970.21484375,11.23046875,85.44921875,43.45703125
1510191128.9924703,-33.203125,-970.21484375,-10.25390625,-81.54296875,23.92578125
1510191128.9963765,1.953125,-970.21484375,8.30078125,13.671875,23.92578125
1510191129.0002828,54.19921875,-970.21484375,41.9921875,222.16796875,47.8515625
1510191129.0025816,50.78125,-970.21484375,31.73828125,168.45703125,28.80859375
1510191129.0064878,30.76171875,-970.21484375,2.44140625,-30.76171875,-8.7890625
1510191129.010394,29.78515625,-970.21484375,0.0,-34.1796875,29.296875
1510191129.0143003,53.22265625,-970.21484375,28.3203125,168.45703125,16.11328125
1510191129.0182066,83.984375,-970.21484375,38.0859375,210.9375,-43.45703125
1510191129.0221128,60.546875,-970.21484375,5.37109375,-7.32421875,-4.39453125
1510191129.026019,38.0859375,-970.21484375,-12.20703125,-85.44921875,40.0390625
1510191129.0299253,57.12890625,-970.21484375,20.01953125,131.8359375,41.50390625
1510191129.0338316,73.73046875,-970.21484375,51.7578125,241.2109375,11.23046875
1510191129.0377378,49.31640625,-970.21484375,25.390625,57.12890625,6.8359375
1510191129.041644,18.06640625,-970.21484375,-3.90625,-75.1953125,48.828125
1510191129.0455503,49.8046875,-970.21484375,26.85546875,62.01171875,27.83203125
1510191129.0476134,63.4765625,-970.21484375,53.22265625,231.4453125,22.94921875
1510191129.0515196,32.71484375,-970.21484375,20.99609375,119.62890625,16.6015625
1510191129.055426,22.4609375,-970.21484375,-5.37109375,-63.96484375,8.7890625
1510191129.0593321,16.11328125,-970.21484375,4.8828125,-15.625,-12.20703125
1510191129.0632384,42.96875,-970.21484375,32.71484375,196.77734375,-36.1328125
1510191129.0671446,64.453125,-970.21484375,19.53125,175.78125,-15.625
1510191129.071051,40.52734375,-970.21484375,-15.13671875,-22.4609375,2.9296875
1510191129.0749571,10.25390625,-970.21484375,-3.90625,-59.5703125,-3.90625
1510191129.0788634,24.90234375,-970.21484375,36.1328125,145.01953125,-1.953125
1510191129.0827696,43.9453125,-970.21484375,33.203125,213.37890625,-12.20703125
1510191129.086676,21.97265625,-970.21484375,-2.9296875,14.6484375,-3.90625
1510191129.0905821,0.48828125,-970.21484375,0.0,-88.37890625,34.1796875
1510191129.0926638,10.25390625,-970.21484375,33.203125,96.6796875,-8.30078125
1510191129.09657,54.19921875,-970.21484375,40.0390625,250.48828125,-3.41796875
1510191129.1004763,47.36328125,-970.21484375,11.71875,59.08203125,59.08203125
1510191129.1043825,7.32421875,-970.21484375,-1.46484375,-104.4921875,64.453125
1510191129.1082888,44.43359375,-970.21484375,17.578125,61.03515625,13.671875
1510191129.112195,73.2421875,-970.21484375,30.76171875,261.71875,-12.20703125
1510191129.1161013,35.15625,-970.21484375,16.11328125,134.27734375,26.85546875
1510191129.1200075,11.23046875,-970.21484375,7.32421875,-78.125,10.7421875
1510191129.1239138,18.5546875,-970.21484375,15.13671875,-16.6015625,11.71875
1510191129.12782,50.29296875,-970.21484375,32.2265625,206.54296875,31.73828125
1510191129.1317263,59.5703125,-970.21484375,29.78515625,210.44921875,2.9296875
1510191129.1356325,42.96875,-970.21484375,1.953125,-4.39453125,24.4140625
1510191129.1526864,22.4609375,-970.21484375,-2.9296875,-69.82421875,50.78125
1510191129.1565926,40.52734375,-970.21484375,31.73828125,147.4609375,82.51953125
1510191129.1604989,74.70703125,-970.21484375,43.9453125,224.12109375,82.51953125
1510191129.164405,28.80859375,-970.21484375,20.5078125,29.78515625,26.85546875
1510191129.1683114,18.06640625,-970.21484375,-1.46484375,-63.4765625,6.8359375
1510191129.1722176,53.7109375,-970.21484375,12.6953125,91.796875,47.36328125
1510191129.1761239,43.45703125,-970.21484375,40.0390625,223.14453125,53.22265625
1510191129.18003,40.0390625,-970.21484375,17.08984375,73.2421875,-4.8828125
1510191129.1839364,41.50390625,-970.21484375,-4.8828125,-73.73046875,-2.44140625
1510191129.1878426,34.1796875,-970.21484375,8.30078125,33.69140625,-17.08984375
1510191129.1917489,59.5703125,-970.21484375,42.96875,232.91015625,-64.453125
1510191129.195655,61.5234375,-970.21484375,36.62109375,139.6484375,-65.4296875
1510191129.1977177,33.203125,-970.21484375,-5.859375,-53.22265625,-33.203125
1510191129.201624,20.01953125,-970.21484375,-1.46484375,-14.16015625,-34.1796875
1510191129.2055302,54.6875,-970.21484375,40.0390625,180.17578125,-41.50390625
1510191129.2094364,53.22265625,-970.21484375,42.96875,206.0546875,-13.671875
1510191129.2133427,24.90234375,-970.21484375,6.34765625,11.71875,-30.76171875
1510191129.217249,3.41796875,-970.21484375,-2.44140625,-46.875,-23.92578125
1510191129.2211552,27.83203125,-970.21484375,20.5078125,148.92578125,-49.31640625
1510191129.2250614,83.984375,-970.21484375,39.55078125,217.28515625,-51.26953125
1510191129.2289677,44.921875,-970.21484375,7.32421875,32.71484375,-44.43359375
1510191129.232874,6.8359375,-970.21484375,-12.20703125,-91.30859375,-27.83203125
1510191129.2367802,21.97265625,-970.21484375,32.71484375,70.3125,18.06640625
1510191129.2406864,70.80078125,-970.21484375,54.19921875,244.140625,-10.25390625
1510191129.2427497,87.890625,-970.21484375,26.3671875,86.42578125,-29.296875
1510191129.246656,48.33984375,-970.21484375,0.9765625,-78.125,-15.13671875
1510191129.2505622,35.15625,-970.21484375,16.11328125,26.3671875,18.5546875
1510191129.2544684,30.76171875,-970.21484375,40.52734375,241.2109375,-2.44140625
1510191129.2583747,14.16015625,-970.21484375,29.296875,166.9921875,-9.765625
1510191129.262281,21.484375,-970.21484375,2.44140625,-59.08203125,13.18359375
1510191129.2661872,39.55078125,-970.21484375,3.90625,-58.10546875,-19.04296875
1510191129.2700934,54.19921875,-970.21484375,37.59765625,161.1328125,-52.24609375
1510191129.2739997,87.890625,-970.21484375,35.64453125,213.37890625,-53.22265625
1510191129.277906,70.3125,-970.21484375,15.13671875,-1.953125,-43.9453125
1510191129.2818122,1.46484375,-970.21484375,15.13671875,-85.9375,-41.015625
1510191129.2857184,39.55078125,-970.21484375,38.0859375,119.62890625,-21.484375
1510191129.287785,83.0078125,-970.21484375,59.08203125,245.1171875,23.92578125
1510191129.2916913,44.921875,-970.21484375,36.62109375,46.875,65.91796875
1510191129.2955976,30.2734375,-970.21484375,15.13671875,-99.12109375,31.25
1510191129.2995038,57.12890625,-970.21484375,31.73828125,59.08203125,-1.46484375
1510191129.30341,73.2421875,-970.21484375,59.08203125,254.8828125,16.11328125
1510191129.3073163,104.98046875,-970.21484375,44.43359375,135.25390625,16.11328125
1510191129.3112226,80.56640625,-970.21484375,23.92578125,-59.08203125,1.46484375
1510191129.3151288,30.76171875,-970.21484375,33.203125,6.34765625,11.71875
1510191129.319035,89.84375,-970.21484375,51.7578125,214.84375,-18.06640625
1510191129.3229413,73.2421875,-970.703125,56.640625,160.15625,-38.0859375
1510191129.3268476,18.06640625,-962.40234375,29.78515625,-50.29296875,9.765625
1510191129.3307538,48.828125,-988.28125,23.4375,-70.3125,18.5546875
1510191129.332313,66.40625,-904.78515625,58.10546875,150.87890625,-1.46484375
1510191129.3362193,56.640625,-800.78125,66.40625,230.95703125,15.13671875
1510191129.3401256,8.30078125,-926.7578125,34.1796875,12.20703125,1.953125
1510191129.3440318,0.9765625,-997.55859375,15.13671875,-101.5625,6.8359375
1510191129.347938,41.015625,-907.71484375,39.0625,89.35546875,56.15234375
1510191129.3518443,68.84765625,-880.37109375,59.5703125,231.4453125,47.36328125
1510191129.3557506,36.1328125,-968.26171875,33.69140625,69.82421875,-15.625
1510191129.3596568,21.484375,-970.21484375,1.46484375,-89.84375,15.13671875
1510191129.363563,48.33984375,-982.91015625,24.4140625,13.18359375,16.6015625
1510191129.3674693,50.78125,-798.33984375,61.5234375,211.9140625,-1.953125
1510191129.3713756,48.33984375,-785.15625,38.57421875,127.44140625,38.0859375
1510191129.3752818,30.2734375,-981.93359375,6.34765625,-75.1953125,38.0859375
1510191129.377345,-15.13671875,-973.14453125,21.484375,-34.66796875,45.41015625
1510191129.3812513,18.06640625,-925.29296875,48.828125,175.78125,20.01953125
1510191129.3851576,82.51953125,-939.94140625,35.64453125,176.26953125,-30.76171875
1510191129.3890638,57.12890625,-973.6328125,13.18359375,-23.92578125,25.390625
1510191129.39297,36.62109375,-974.609375,9.765625,-69.3359375,36.1328125
1510191129.3968763,39.0625,-952.63671875,37.109375,129.8828125,2.9296875
1510191129.4007826,44.43359375,-929.6875,43.9453125,222.16796875,28.3203125
1510191129.4046888,34.1796875,-962.40234375,12.20703125,14.16015625,28.3203125
1510191129.408595,-6.34765625,-985.3515625,9.27734375,-109.86328125,-1.953125
1510191129.4125013,4.8828125,-932.12890625,39.0625,77.63671875,17.578125
1510191129.4164076,48.828125,-870.60546875,55.17578125,240.72265625,60.546875
1510191129.4203138,28.80859375,-950.1953125,29.78515625,74.21875,41.50390625
1510191129.4223769,-2.44140625,-973.6328125,4.8828125,-102.5390625,-25.87890625
1510191129.4262831,17.578125,-972.16796875,23.4375,15.625,0.9765625
1510191129.4301894,55.17578125,-945.80078125,55.6640625,210.9375,52.734375
1510191129.4340956,24.90234375,-927.734375,46.875,148.4375,75.68359375
1510191129.4380019,1.46484375,-970.21484375,14.16015625,-52.24609375,14.6484375
1510191129.4419081,-5.37109375,-971.6796875,14.16015625,-55.17578125,-3.90625
1510191129.4458144,-5.859375,-968.26171875,37.59765625,173.828125,16.11328125
1510191129.4497206,30.76171875,-970.703125,42.48046875,192.3828125,-49.8046875
1510191129.4536269,16.6015625,-967.28515625,26.85546875,-18.06640625,-11.71875
1510191129.4575331,-6.8359375,-977.5390625,16.6015625,-86.9140625,37.59765625
1510191129.4614394,15.625,-944.3359375,43.9453125,125.0,34.1796875
1510191129.4653456,25.390625,-924.31640625,59.08203125,251.46484375,-22.4609375
1510191129.467429,27.83203125,-970.703125,32.2265625,59.08203125,-76.171875
1510191129.4713352,-5.859375,-971.6796875,9.765625,-96.19140625,-22.4609375
1510191129.4752414,9.27734375,-968.75,28.3203125,41.015625,-9.765625
1510191129.4791477,52.24609375,-964.84375,54.19921875,220.703125,-39.55078125
1510191129.483054,22.94921875,-967.28515625,36.62109375,94.23828125,-34.66796875
1510191129.4869602,-10.25390625,-971.19140625,0.0,-73.2421875,-13.671875
1510191129.4908664,-14.16015625,-969.7265625,6.8359375,-21.97265625,-23.92578125
1510191129.4947727,21.484375,-970.21484375,44.921875,175.78125,-46.38671875
1510191129.498679,38.57421875,-970.703125,41.015625,165.0390625,-23.4375
1510191129.5025852,19.04296875,-964.84375,12.6953125,-26.3671875,20.99609375
1510191129.5064914,9.27734375,-983.3984375,10.7421875,-39.0625,19.04296875
1510191129.5103977,31.73828125,-921.875,44.43359375,153.3203125,57.6171875
1510191129.5274534,51.7578125,-882.8125,52.24609375,199.70703125,81.54296875
1510191129.5313597,-14.16015625,-968.75,25.390625,15.625,31.73828125
1510191129.535266,-46.875,-974.609375,9.27734375,-76.66015625,12.6953125
1510191129.5391722,7.32421875,-965.8203125,34.66796875,103.515625,-31.25
1510191129.5430784,25.87890625,-957.03125,51.7578125,232.91015625,30.76171875
1510191129.5469847,-19.04296875,-966.30859375,18.5546875,41.9921875,83.0078125
1510191129.550891,-18.5546875,-972.16796875,-0.9765625,-117.67578125,24.4140625
1510191129.5547972,26.3671875,-969.23828125,27.34375,33.69140625,21.97265625
1510191129.5587034,61.5234375,-970.21484375,51.7578125,230.95703125,17.578125
1510191129.5626097,42.48046875,-970.21484375,31.25,103.515625,29.296875
1510191129.566516,-14.16015625,-970.21484375,5.859375,-83.0078125,78.125
1510191129.5704222,-11.23046875,-970.21484375,17.578125,-10.25390625,69.3359375
1510191129.5724847,30.2734375,-970.21484375,42.96875,181.15234375,38.0859375
1510191129.576391,34.1796875,-970.21484375,27.83203125,150.87890625,56.15234375
1510191129.5802972,-0.48828125,-970.21484375,3.90625,-47.36328125,15.13671875
1510191129.5842035,-2.9296875,-970.21484375,6.34765625,-83.0078125,0.9765625
1510191129.5881097,-1.46484375,-970.21484375,24.90234375,130.37109375,8.30078125
1510191129.592016,-1.953125,-970.21484375,38.0859375,215.8203125,-14.16015625
1510191129.5959222,2.9296875,-970.21484375,20.01953125,15.625,1.953125
1510191129.5998285,-17.08984375,-970.21484375,1.46484375,-103.02734375,-6.8359375
1510191129.6037347,-5.37109375,-970.21484375,21.97265625,83.984375,-13.18359375
1510191129.607641,28.80859375,-970.21484375,37.59765625,228.02734375,-16.6015625
1510191129.6115472,2.44140625,-970.21484375,24.90234375,51.7578125,-11.71875
1510191129.6154535,-42.96875,-970.21484375,2.44140625,-87.40234375,7.32421875
1510191129.617536,-7.8125,-970.21484375,17.578125,29.78515625,-4.39453125
1510191129.6214423,28.3203125,-970.21484375,43.45703125,219.23828125,21.97265625
1510191129.6253486,-1.953125,-970.21484375,28.3203125,129.8828125,-5.859375
1510191129.6292548,-37.59765625,-970.21484375,4.8828125,-69.82421875,-41.9921875
1510191129.633161,-29.296875,-970.21484375,3.90625,-17.08984375,-27.83203125
1510191129.6370673,-8.7890625,-970.21484375,36.62109375,189.94140625,-47.36328125
1510191129.6409736,-12.20703125,-970.21484375,36.1328125,178.22265625,-34.1796875
1510191129.6448798,-42.48046875,-970.21484375,5.859375,-36.1328125,-8.30078125
1510191129.648786,-58.10546875,-970.21484375,-7.8125,-107.421875,1.46484375
1510191129.6526923,-3.90625,-970.21484375,23.92578125,99.609375,-23.92578125
1510191129.6565986,45.41015625,-970.21484375,48.828125,223.14453125,0.0
1510191129.6605048,14.16015625,-970.21484375,19.53125,34.66796875,63.96484375
1510191129.662548,7.8125,-970.21484375,-3.90625,-92.7734375,17.08984375
1510191129.6664543,8.7890625,-970.21484375,19.53125,83.0078125,-26.85546875
1510191129.6703606,22.94921875,-970.21484375,45.8984375,238.76953125,-42.96875
1510191129.6742668,12.6953125,-970.21484375,19.53125,68.84765625,-34.1796875
1510191129.678173,-39.55078125,-970.21484375,-8.30078125,-100.09765625,-20.01953125
1510191129.6820793,-7.8125,-970.21484375,7.32421875,0.9765625,-21.97265625
1510191129.6859856,32.71484375,-970.21484375,38.57421875,201.171875,26.85546875
1510191129.6898918,31.25,-970.21484375,25.390625,152.83203125,24.90234375
1510191129.693798,9.27734375,-970.21484375,-9.765625,-60.546875,19.53125
1510191129.6977043,-20.01953125,-970.21484375,3.41796875,-74.70703125,28.3203125
1510191129.7016106,1.953125,-970.21484375,32.2265625,156.25,25.87890625
1510191129.7055168,44.43359375,-970.21484375,27.83203125,190.4296875,32.71484375
1510191129.7225897,7.32421875,-970.21484375,1.46484375,-29.78515625,-35.64453125
1510191129.726496,-34.1796875,-970.21484375,-1.46484375,-109.375,-73.73046875
1510191129.7304022,14.16015625,-970.21484375,29.78515625,95.21484375,22.4609375
1510191129.7343085,62.5,-970.21484375,40.52734375,214.84375,35.15625
1510191129.7382147,19.53125,-970.21484375,13.671875,25.390625,-3.90625
1510191129.742121,-13.671875,-970.21484375,-3.90625,-111.81640625,7.8125
1510191129.7460272,-3.90625,-970.21484375,15.625,40.52734375,-20.99609375
1510191129.7499335,7.32421875,-970.21484375,38.0859375,196.2890625,11.71875
1510191129.7538397,24.90234375,-970.21484375,24.90234375,48.828125,63.4765625
1510191129.757746,3.90625,-970.21484375,5.37109375,-102.5390625,41.9921875
1510191129.7616522,13.18359375,-970.21484375,16.6015625,-1.953125,76.66015625
1510191129.7655585,37.109375,-970.21484375,45.41015625,200.1953125,47.8515625
1510191129.7526147,-7.32421875,-970.21484375,39.0625,158.69140625,-15.625
1510191129.756521,-17.578125,-970.21484375,11.23046875,-34.66796875,18.06640625
1510191129.7604272,11.71875,-970.21484375,3.90625,-36.1328125,-20.01953125
1510191129.7643335,41.9921875,-970.21484375,34.66796875,165.0390625,-32.2265625
1510191129.7682397,13.18359375,-970.21484375,43.9453125,217.7734375,3.41796875
1510191129.772146,-1.46484375,-970.21484375,12.6953125,34.1796875,40.0390625
1510191129.7760522,32.71484375,-970.21484375,-4.39453125,-68.359375,-16.6015625
1510191129.7799585,44.43359375,-970.21484375,23.92578125,108.3984375,-45.8984375
1510191129.7838647,56.15234375,-970.21484375,51.7578125,263.18359375,3.90625
1510191129.787771,29.78515625,-970.21484375,39.55078125,97.65625,25.390625
1510191129.7916772,8.7890625,-970.21484375,7.32421875,-68.359375,7.8125
1510191129.7955835,24.90234375,-970.21484375,16.11328125,81.0546875,4.39453125
1510191129.7976458,52.734375,-970.21484375,58.10546875,277.83203125,12.20703125
1510191129.801552,51.7578125,-969.23828125,43.9453125,166.015625,6.34765625
1510191129.8054583,17.08984375,-969.7265625,17.08984375,-22.4609375,54.19921875
1510191129.8093646,3.90625,-975.09765625,22.4609375,42.96875,41.9921875
1510191129.8132708,30.76171875,-933.10546875,52.24609375,241.69921875,2.44140625
1510191129.817177,47.8515625,-942.3828125,47.36328125,215.33203125,17.08984375
1510191129.8210833,9.765625,-967.7734375,7.8125,20.5078125,31.25
1510191129.8249896,-6.34765625,-990.234375,9.27734375,-36.1328125,39.0625
1510191129.8288958,12.6953125,-887.20703125,50.29296875,180.6640625,46.875
1510191129.832802,9.765625,-785.15625,51.26953125,269.53125,39.0625
1510191129.8367083,10.7421875,-937.01171875,21.97265625,68.84765625,-12.6953125
1510191129.8406146,27.34375,-1000.0,12.6953125,-61.03515625,-51.7578125
1510191129.8576858,27.34375,-910.15625,36.62109375,120.1171875,-13.18359375
1510191129.861592,46.38671875,-809.5703125,60.546875,298.828125,7.32421875
1510191129.8654983,53.22265625,-939.94140625,34.1796875,105.46875,-7.8125
1510191129.8694046,22.4609375,-984.86328125,7.32421875,-68.359375,-16.11328125
1510191129.8733108,8.30078125,-961.9140625,34.66796875,47.8515625,-39.55078125
1510191129.877217,20.01953125,-971.19140625,53.7109375,238.28125,-13.671875
1510191129.8811233,27.34375,-969.23828125,40.0390625,139.6484375,57.6171875
1510191129.8850296,-6.8359375,-968.75,27.34375,-53.22265625,72.265625
1510191129.8889358,-23.92578125,-972.65625,28.3203125,-1.953125,41.015625
1510191129.892842,24.4140625,-953.61328125,43.45703125,188.96484375,34.66796875
1510191129.8967483,62.5,-923.33984375,44.43359375,203.61328125,46.875
1510191129.9006546,38.57421875,-956.0546875,21.484375,13.18359375,-14.16015625
1510191129.902718,3.90625,-975.5859375,15.13671875,-53.22265625,-58.59375
1510191129.9066243,16.6015625,-971.6796875,42.48046875,151.85546875,-35.15625
1510191129.9105306,39.55078125,-917.96875,57.6171875,229.00390625,-22.4609375
1510191129.9144368,29.78515625,-929.6875,30.76171875,41.9921875,10.25390625
1510191129.918343,17.578125,-982.421875,17.08984375,-77.63671875,49.31640625
1510191129.9222493,7.32421875,-956.54296875,38.0859375,86.9140625,55.6640625
1510191129.9261556,16.6015625,-924.8046875,49.8046875,259.27734375,45.8984375
1510191129.9300618,22.94921875,-950.68359375,33.69140625,98.6328125,72.75390625
1510191129.933968,21.484375,-965.8203125,11.23046875,-80.078125,63.4765625
1510191129.9378743,24.90234375,-996.09375,14.16015625,18.06640625,-9.765625
1510191129.9417806,18.5546875,-836.9140625,54.19921875,224.12109375,64.453125
1510191129.9456868,5.859375,-789.0625,50.78125,168.9453125,64.453125
1510191129.9472506,-18.06640625,-975.5859375,11.23046875,-49.31640625,-25.87890625
1510191129.9511569,-11.23046875,-986.328125,16.11328125,-39.55078125,40.0390625
1510191129.955063,14.6484375,-909.1796875,46.38671875,177.734375,29.78515625
1510191129.9589694,5.37109375,-875.0,48.33984375,204.58984375,-35.64453125
1510191129.9628756,-18.06640625,-958.49609375,23.4375,4.8828125,-5.859375
1510191129.9667819,-7.8125,-991.2109375,16.6015625,-78.61328125,12.20703125
1510191129.970688,21.484375,-914.55078125,46.38671875,105.46875,22.94921875
1510191129.9745944,38.0859375,-812.01171875,65.4296875,223.6328125,27.34375
1510191129.9785006,21.97265625,-933.10546875,23.4375,52.734375,-5.37109375
1510191129.9824069,0.9765625,-981.4453125,2.9296875,-100.5859375,-20.5078125
1510191129.986313,6.34765625,-977.5390625,39.55078125,39.0625,-34.66796875
1510191129.9902194,7.32421875,-809.5703125,63.96484375,228.515625,36.62109375
1510191129.9922807,-21.97265625,-814.94140625,41.015625,98.6328125,69.3359375
1510191129.996187,-33.203125,-988.76953125,10.25390625,-78.125,-20.99609375
1510191130.0000932,-10.7421875,-974.609375,23.4375,7.32421875,4.8828125
1510191130.0039995,11.71875,-919.43359375,52.734375,221.19140625,-8.30078125
1510191130.0079057,11.71875,-921.875,45.41015625,171.38671875,-27.83203125
1510191130.011812,-26.3671875,-977.5390625,13.18359375,-46.38671875,34.1796875
1510191130.0157182,-23.92578125,-973.6328125,11.23046875,-43.45703125,24.4140625
1510191130.0196245,16.6015625,-937.01171875,49.8046875,184.08203125,-4.39453125
1510191130.0235307,24.90234375,-941.40625,45.8984375,212.890625,-0.9765625
1510191130.027437,-13.18359375,-976.07421875,12.20703125,-8.7890625,37.109375
1510191130.0313432,-32.71484375,-967.28515625,17.08984375,-90.8203125,29.296875
1510191130.0352495,8.30078125,-975.5859375,36.62109375,102.05078125,-19.53125
1510191130.0373335,25.87890625,-942.87109375,53.22265625,231.93359375,-18.5546875
1510191130.0412397,-7.8125,-939.453125,31.73828125,65.4296875,20.01953125
1510191130.045146,-29.296875,-973.6328125,11.71875,-64.94140625,49.31640625
1510191130.0490522,1.953125,-975.09765625,29.78515625,73.73046875,35.15625
1510191130.0529585,19.53125,-929.6875,47.36328125,234.86328125,-13.671875
1510191130.0568647,0.0,-937.5,30.76171875,132.32421875,15.13671875
1510191130.060771,-18.5546875,-975.5859375,6.34765625,-45.8984375,10.25390625
1510191130.0646772,-2.44140625,-971.19140625,9.27734375,-10.25390625,22.4609375
1510191130.0685835,16.6015625,-962.890625,31.25,170.8984375,30.2734375
1510191130.0724897,-3.90625,-943.359375,41.50390625,156.25,33.69140625
1510191130.076396,-19.53125,-961.9140625,13.671875,-23.4375,20.99609375
1510191130.0803022,-17.08984375,-984.86328125,10.7421875,-36.62109375,-7.32421875
1510191130.0823448,-4.8828125,-929.6875,39.55078125,146.484375,5.859375
1510191130.086251,10.7421875,-887.6953125,43.9453125,195.80078125,0.48828125
1510191130.0901573,19.04296875,-966.30859375,9.765625,35.15625,48.33984375
1510191130.0940635,26.85546875,-974.609375,-8.7890625,-49.31640625,69.82421875
1510191130.0979698,28.80859375,-966.30859375,27.34375,109.375,-1.46484375
1510191130.101876,35.64453125,-970.21484375,52.734375,230.95703125,12.6953125
1510191130.1057823,7.8125,-968.75,33.203125,88.37890625,24.4140625
1510191130.1096885,-24.4140625,-967.28515625,13.18359375,-64.453125,22.94921875
1510191130.1135948,-13.671875,-982.91015625,29.296875,34.1796875,-2.44140625
1510191130.117501,13.18359375,-885.7421875,65.91796875,235.83984375,-26.85546875
1510191130.1214073,34.1796875,-877.44140625,50.29296875,146.97265625,-18.06640625
1510191130.1253135,11.23046875,-970.21484375,20.5078125,-40.0390625,56.640625
1510191130.1273775,-10.25390625,-998.53515625,29.78515625,2.44140625,42.48046875
1510191130.1312838,4.8828125,-833.49609375,66.40625,226.07421875,39.0625
1510191130.13519,13.18359375,-779.296875,55.6640625,229.00390625,22.4609375
1510191130.1390963,-11.71875,-977.05078125,16.6015625,-4.8828125,-29.296875
1510191130.1430025,7.32421875,-979.00390625,20.99609375,-50.78125,43.45703125
1510191130.1469088,62.01171875,-945.80078125,49.31640625,173.33984375,96.19140625
1510191130.150815,67.3828125,-937.5,52.24609375,252.44140625,51.26953125
1510191130.1547213,34.66796875,-964.84375,22.94921875,31.73828125,5.37109375
1510191130.1586275,20.01953125,-981.4453125,17.08984375,-79.1015625,24.90234375
1510191130.1625338,22.4609375,-941.40625,44.921875,93.75,22.94921875
1510191130.16644,26.85546875,-801.7578125,59.08203125,258.30078125,60.05859375
1510191130.1703463,36.62109375,-875.48828125,35.15625,122.0703125,72.265625
1510191130.1724288,14.16015625,-980.95703125,12.6953125,-56.640625,30.76171875
1510191130.176335,3.90625,-972.65625,24.4140625,26.3671875,-1.46484375
1510191130.1802413,28.3203125,-928.7109375,49.31640625,221.19140625,-1.46484375
1510191130.1841476,34.66796875,-916.015625,40.0390625,166.015625,-46.38671875
1510191130.1880538,17.578125,-973.14453125,12.6953125,-32.71484375,-49.8046875
1510191130.19196,20.99609375,-971.19140625,19.04296875,-34.1796875,22.4609375
1510191130.1958663,34.66796875,-968.26171875,39.55078125,163.0859375,31.73828125
1510191130.1997726,10.25390625,-968.75,42.48046875,184.5703125,31.25
1510191130.2036788,-29.78515625,-963.8671875,23.4375,-7.8125,-2.9296875
1510191130.207585,-2.44140625,-980.46875,10.7421875,-66.89453125,-17.08984375
1510191130.2114913,32.71484375,-944.82421875,41.9921875,120.1171875,-2.9296875
1510191130.2153976,43.45703125,-866.69921875,58.10546875,230.46875,-45.41015625
1510191130.2174613,32.71484375,-933.59375,26.85546875,64.453125,-41.015625
1510191130.2213676,3.90625,-982.421875,0.9765625,-82.51953125,-21.97265625
1510191130.2252738,13.671875,-967.28515625,22.4609375,52.24609375,-26.85546875
1510191130.22918,27.83203125,-847.65625,46.875,223.6328125,-3.41796875
1510191130.2330863,4.8828125,-878.90625,30.76171875,103.02734375,-2.44140625
1510191130.2369926,-16.11328125,-979.4921875,0.48828125,-48.828125,-31.25
1510191130.2408988,-18.5546875,-983.88671875,6.34765625,22.4609375,-33.69140625
1510191130.244805,0.9765625,-880.37109375,52.24609375,201.66015625,20.5078125
1510191130.2487113,15.13671875,-843.75,42.48046875,173.33984375,20.99609375
1510191130.2526176,0.9765625,-974.12109375,5.37109375,-24.4140625,-91.796875
1510191130.2565238,-9.765625,-972.65625,11.23046875,-58.10546875,-88.37890625
1510191130.26043,3.90625,-966.30859375,37.109375,143.06640625,-11.23046875
1510191130.2775042,23.4375,-972.16796875,38.57421875,202.63671875,-50.78125
1510191130.2814105,6.34765625,-964.84375,13.18359375,-4.39453125,-21.484375
1510191130.2853167,-22.4609375,-978.515625,8.30078125,-100.09765625,20.99609375
1510191130.289223,-11.23046875,-952.63671875,33.69140625,81.54296875,34.1796875
1510191130.2931292,15.625,-857.91015625,45.41015625,218.26171875,70.3125
1510191130.2970355,2.44140625,-926.7578125,17.578125,68.359375,77.63671875
1510191130.3009417,-26.3671875,-983.3984375,0.9765625,-93.75,54.6875
1510191130.304848,-24.4140625,-967.7734375,25.87890625,15.13671875,41.015625
1510191130.3087542,-13.18359375,-934.08203125,49.31640625,193.359375,46.38671875
1510191130.3126605,-7.8125,-944.3359375,27.34375,102.05078125,39.55078125
1510191130.3165667,-12.6953125,-977.05078125,1.953125,-73.2421875,12.20703125
1510191130.320473,-0.48828125,-967.7734375,12.20703125,-26.85546875,-7.32421875
1510191130.3230176,5.859375,-967.7734375,37.109375,190.4296875,-30.2734375
1510191130.3269238,-12.6953125,-968.75,43.9453125,173.828125,-43.45703125
1510191130.33083,-22.4609375,-970.21484375,22.94921875,-47.8515625,-30.76171875
1510191130.3347363,-55.17578125,-969.7265625,16.11328125,-82.51953125,0.48828125
1510191130.3386426,-33.69140625,-970.21484375,50.29296875,133.30078125,30.2734375
1510191130.3425488,3.90625,-970.21484375,53.7109375,217.7734375,16.11328125
1510191130.346455,3.41796875,-970.21484375,23.4375,16.6015625,-22.4609375
1510191130.3503613,-17.578125,-970.21484375,18.06640625,-97.65625,-7.8125
1510191130.3542676,-12.6953125,-970.21484375,36.1328125,61.03515625,4.8828125
1510191130.3581738,28.3203125,-970.21484375,51.7578125,217.7734375,46.38671875
1510191130.36208,7.8125,-969.7265625,42.96875,67.87109375,45.41015625
1510191130.3659863,-25.87890625,-967.7734375,21.97265625,-104.98046875,-23.4375
1510191130.3675678,-33.69140625,-979.98046875,29.296875,20.01953125,-38.0859375
1510191130.371474,6.8359375,-918.45703125,59.5703125,222.65625,28.80859375
1510191130.3753803,31.73828125,-916.015625,48.33984375,133.30078125,43.9453125
1510191130.3792865,4.39453125,-979.00390625,17.08984375,-68.359375,33.203125
1510191130.3831928,-14.6484375,-968.26171875,21.97265625,-41.9921875,40.52734375
1510191130.387099,-4.39453125,-969.7265625,48.33984375,174.8046875,28.80859375
1510191130.3910053,11.71875,-971.19140625,49.31640625,197.265625,-42.48046875
1510191130.3949115,-1.953125,-963.37890625,19.53125,-16.6015625,-48.33984375
1510191130.3988178,9.765625,-984.375,4.39453125,-84.47265625,-2.9296875
1510191130.402724,35.64453125,-926.7578125,35.15625,111.328125,16.6015625
1510191130.4066303,41.50390625,-832.51953125,59.5703125,217.28515625,17.08984375
1510191130.4105365,37.109375,-926.26953125,27.34375,41.015625,-2.9296875
1510191130.412579,13.18359375,-986.328125,8.30078125,-94.7265625,-4.8828125
1510191130.4164853,-9.27734375,-954.58984375,33.69140625,61.5234375,-5.37109375
1510191130.4203916,21.97265625,-831.54296875,56.640625,227.5390625,27.83203125
1510191130.4242978,30.76171875,-878.90625,28.3203125,105.46875,-5.859375
1510191130.428204,6.34765625,-985.3515625,-0.9765625,-63.4765625,-28.3203125
1510191130.4321103,10.7421875,-965.33203125,14.16015625,20.5078125,3.90625
1510191130.4360166,40.52734375,-969.23828125,43.45703125,222.65625,-18.06640625
1510191130.4399228,28.3203125,-970.703125,33.69140625,154.78515625,-31.25
1510191130.443829,-16.11328125,-963.37890625,5.37109375,-76.171875,-30.2734375
1510191130.4477353,-17.578125,-990.72265625,21.484375,-64.94140625,-12.20703125
1510191130.4516416,20.99609375,-884.27734375,48.828125,172.8515625,21.484375
1510191130.4555478,40.0390625,-845.21484375,48.33984375,203.125,6.34765625
1510191130.4576323,20.01953125,-971.6796875,19.04296875,-2.44140625,3.41796875
1510191130.4615386,-3.90625,-987.3046875,9.765625,-81.0546875,7.8125
1510191130.4654448,18.5546875,-912.59765625,37.59765625,123.046875,32.2265625
1510191130.469351,39.0625,-877.44140625,49.31640625,230.95703125,30.2734375
1510191130.4732573,19.04296875,-973.14453125,20.99609375,51.26953125,-48.828125
1510191130.4771636,-14.16015625,-972.65625,3.41796875,-68.359375,-22.4609375
1510191130.4810698,-8.7890625,-966.796875,29.78515625,56.640625,54.6875
1510191130.484976,25.390625,-970.703125,47.8515625,227.5390625,74.21875
1510191130.4888823,-1.953125,-969.7265625,31.73828125,93.75,80.56640625
1510191130.4927886,-28.3203125,-968.75,17.578125,-93.26171875,47.8515625
1510191130.4966948,-5.859375,-977.05078125,21.484375,-4.8828125,-2.44140625
1510191130.500601,20.5078125,-927.24609375,50.29296875,224.12109375,36.1328125
1510191130.5026438,36.62109375,-932.12890625,47.36328125,198.73046875,56.640625
1510191130.50655,13.671875,-974.12109375,22.94921875,-23.4375,24.90234375
1510191130.5104563,11.23046875,-978.515625,18.06640625,-42.96875,21.484375
1510191130.5143626,44.43359375,-929.6875,41.9921875,166.015625,12.6953125
1510191130.5182688,41.50390625,-899.4140625,51.26953125,214.35546875,-7.8125
1510191130.522175,3.90625,-966.30859375,24.90234375,22.94921875,9.765625
1510191130.5260813,-17.08984375,-975.5859375,7.32421875,-90.8203125,15.13671875
1510191130.5299876,4.39453125,-965.8203125,30.2734375,68.84765625,10.25390625
1510191130.5338938,29.296875,-864.2578125,58.10546875,239.2578125,32.71484375
1510191130.5378,28.80859375,-893.5546875,32.71484375,88.37890625,39.0625
1510191130.5417063,5.37109375,-978.515625,10.25390625,-73.2421875,0.48828125
1510191130.5456126,2.9296875,-981.4453125,41.015625,41.50390625,-20.5078125
1510191130.5474823,6.34765625,-883.30078125,72.75390625,225.5859375,-2.9296875
1510191130.5513885,-2.44140625,-870.60546875,51.7578125,137.6953125,34.66796875
1510191130.5552948,-8.30078125,-980.95703125,14.16015625,-52.734375,-0.9765625
1510191130.559201,9.27734375,-971.19140625,22.94921875,-6.34765625,-3.90625
1510191130.5631073,32.2265625,-948.73046875,56.15234375,211.42578125,-17.578125
1510191130.5670135,47.36328125,-958.984375,46.38671875,193.359375,-55.17578125
1510191130.5709198,10.7421875,-968.26171875,16.6015625,-16.11328125,22.94921875
1510191130.574826,-1.46484375,-981.93359375,23.92578125,-50.29296875,97.16796875
1510191130.5787323,24.4140625,-931.640625,58.59375,167.96875,57.6171875
1510191130.5826385,17.578125,-875.9765625,58.10546875,240.234375,-5.37109375
1510191130.5865448,10.25390625,-958.49609375,28.80859375,27.34375,11.23046875
1510191130.590451,15.625,-980.46875,11.71875,-88.8671875,34.66796875
1510191130.5925171,41.50390625,-962.40234375,34.1796875,85.9375,-4.39453125
1510191130.5964234,61.5234375,-910.64453125,54.6875,250.0,17.08984375
1510191130.6003296,33.203125,-949.21875,32.2265625,83.984375,5.859375
1510191130.604236,0.0,-979.00390625,14.6484375,-75.1953125,-20.99609375
1510191130.6081421,5.37109375,-965.8203125,30.76171875,49.31640625,23.4375
1510191130.6120484,26.85546875,-971.19140625,45.41015625,244.62890625,4.39453125
1510191130.6159546,23.4375,-970.21484375,34.1796875,152.34375,20.5078125
1510191130.619861,9.765625,-968.75,23.4375,-57.6171875,-10.25390625
1510191130.6237671,24.90234375,-972.65625,25.390625,-18.06640625,-85.44921875
1510191130.6276734,44.43359375,-965.8203125,45.41015625,199.21875,-24.4140625
1510191130.6315796,35.15625,-948.73046875,46.875,199.70703125,51.26953125
1510191130.635486,20.01953125,-965.33203125,18.06640625,7.32421875,-25.390625
1510191130.6525602,24.4140625,-974.609375,9.765625,-36.62109375,0.9765625
1510191130.6564665,38.0859375,-965.8203125,35.64453125,141.6015625,25.87890625
1510191130.6603727,29.296875,-938.4765625,48.828125,234.86328125,-3.90625
1510191130.664279,-1.953125,-957.03125,26.3671875,55.6640625,16.11328125
1510191130.6681852,-10.7421875,-973.6328125,6.34765625,-75.1953125,-3.90625
1510191130.6720915,21.97265625,-972.16796875,15.13671875,76.171875,-34.66796875
1510191130.6759977,34.1796875,-951.66015625,39.0625,226.5625,-20.5078125
1510191130.679904,-6.34765625,-949.70703125,31.73828125,88.37890625,37.109375
1510191130.6838102,-17.578125,-970.703125,2.44140625,-69.82421875,13.18359375
1510191130.6877165,-15.13671875,-978.515625,11.23046875,28.3203125,-2.44140625
1510191130.6916227,12.20703125,-923.828125,49.31640625,226.5625,18.06640625
1510191130.695529,27.83203125,-916.015625,41.9921875,170.8984375,28.80859375
1510191130.697609,0.9765625,-973.14453125,9.765625,-28.3203125,10.7421875
1510191130.7015152,18.5546875,-978.02734375,13.18359375,-26.3671875,-31.73828125
1510191130.7054214,30.2734375,-940.4296875,41.015625,178.7109375,-15.625
1510191130.7093277,37.59765625,-915.0390625,50.29296875,213.37890625,11.71875
1510191130.713234,19.04296875,-968.75,20.5078125,15.625,6.34765625
1510191130.7171402,-2.9296875,-973.6328125,4.39453125,-59.08203125,7.32421875
1510191130.7210464,21.97265625,-966.796875,28.80859375,136.71875,29.296875
1510191130.7249527,44.43359375,-958.984375,47.36328125,260.25390625,-6.34765625
1510191130.728859,8.7890625,-966.30859375,16.11328125,74.21875,-15.13671875
1510191130.7327652,-32.2265625,-972.16796875,-8.30078125,-94.7265625,-4.39453125
1510191130.7366714,-14.6484375,-972.65625,28.3203125,44.921875,-10.7421875
1510191130.7405777,4.8828125,-929.19921875,51.7578125,228.02734375,14.6484375
1510191130.7426262,1.46484375,-943.359375,26.3671875,109.86328125,-24.4140625
1510191130.7465324,-4.39453125,-976.5625,9.27734375,-64.453125,-34.1796875
1510191130.7504387,-8.7890625,-973.14453125,27.34375,-0.48828125,-13.671875
1510191130.754345,28.3203125,-938.96484375,52.24609375,204.58984375,-30.2734375
1510191130.7582512,58.59375,-938.4765625,44.921875,175.78125,-24.4140625
1510191130.7621574,19.04296875,-975.09765625,17.08984375,-15.625,-26.85546875
1510191130.7660637,7.32421875,-971.19140625,18.5546875,-31.73828125,-27.83203125
1510191130.76997,33.203125,-957.03125,56.15234375,182.6171875,-10.7421875
1510191130.7738762,37.109375,-957.03125,61.03515625,229.4921875,-16.6015625
1510191130.7777824,14.6484375,-972.65625,30.2734375,-10.7421875,16.11328125
1510191130.7816887,-34.1796875,-969.7265625,15.625,-110.83984375,41.9921875
1510191130.785595,-28.80859375,-970.21484375,34.1796875,87.890625,-19.04296875
1510191130.78766,40.0390625,-970.21484375,49.8046875,241.2109375,-38.57421875
1510191130.7915661,20.99609375,-969.7265625,32.2265625,69.3359375,50.29296875
1510191130.7954724,-0.48828125,-970.703125,6.8359375,-79.1015625,42.48046875
1510191130.7993786,28.80859375,-971.19140625,17.08984375,54.19921875,-16.11328125
1510191130.803285,53.22265625,-953.125,45.8984375,245.1171875,-3.90625
1510191130.8071911,48.33984375,-960.9375,33.203125,144.04296875,16.6015625
1510191130.8110974,7.8125,-972.65625,10.25390625,-65.4296875,44.43359375
1510191130.8150036,-3.90625,-970.21484375,14.6484375,-23.92578125,39.0625
1510191130.81891,13.671875,-965.33203125,40.0390625,187.98828125,32.2265625
1510191130.8228161,21.97265625,-963.37890625,50.78125,175.29296875,5.37109375
1510191130.8267224,33.69140625,-963.8671875,26.85546875,-18.06640625,-16.6015625
1510191130.8306286,41.50390625,-985.83984375,17.578125,-61.03515625,12.6953125
1510191130.8326912,40.52734375,-920.41015625,47.36328125,143.06640625,65.91796875
1510191130.8365974,48.33984375,-850.09765625,58.10546875,234.375,66.89453125
1510191130.8405037,61.03515625,-955.56640625,25.390625,35.15625,30.2734375
1510191130.84441,19.04296875,-979.00390625,6.8359375,-79.58984375,24.90234375
1510191130.8483162,-5.859375,-961.42578125,30.76171875,98.14453125,13.671875
1510191130.8522224,36.62109375,-967.28515625,53.22265625,244.62890625,61.5234375
1510191130.8561287,49.8046875,-969.23828125,32.71484375,75.1953125,74.70703125
1510191130.860035,2.44140625,-967.28515625,2.44140625,-80.56640625,35.15625
1510191130.8639412,-6.8359375,-983.3984375,25.390625,37.59765625,61.03515625
1510191130.8678474,63.4765625,-872.0703125,61.5234375,244.140625,28.3203125
1510191130.8717537,55.17578125,-866.69921875,41.50390625,169.43359375,-8.30078125
1510191130.87566,22.94921875,-971.6796875,10.25390625,-50.78125,-13.18359375
1510191130.8777266,37.109375,-991.2109375,19.04296875,-28.3203125,1.46484375
1510191130.8816328,39.0625,-891.6015625,48.828125,182.12890625,-3.41796875
1510191130.885539,37.59765625,-819.3359375,51.26953125,224.609375,55.17578125
1510191130.8894453,17.08984375,-966.30859375,23.4375,22.4609375,66.89453125
1510191130.8933516,12.20703125,-977.5390625,12.20703125,-74.70703125,17.578125
1510191130.8972578,60.546875,-963.37890625,40.0390625,117.67578125,-1.953125
1510191130.901164,72.75390625,-972.16796875,53.22265625,230.95703125,-26.3671875
1510191130.9050703,39.0625,-966.30859375,26.85546875,55.6640625,-10.25390625
1510191130.9089766,13.18359375,-976.07421875,21.484375,-75.68359375,-24.4140625
1510191130.9128828,34.66796875,-958.0078125,44.921875,83.49609375,-26.3671875
1510191130.916789,57.6171875,-879.39453125,62.01171875,257.8125,2.44140625
1510191130.9206953,35.64453125,-920.41015625,41.50390625,102.5390625,1.953125
1510191130.9222534,4.8828125,-971.6796875,16.11328125,-90.33203125,-26.85546875
1510191130.9261596,16.6015625,-979.4921875,24.90234375,12.6953125,-48.33984375
1510191130.9300659,32.2265625,-935.05859375,53.22265625,231.4453125,-51.26953125
1510191130.9339721,22.94921875,-873.53515625,52.24609375,183.10546875,1.953125
1510191130.9378784,-9.765625,-956.54296875,20.99609375,-40.52734375,-18.5546875
1510191130.9417846,-16.11328125,-977.05078125,13.671875,-42.48046875,-37.59765625
1510191130.9456909,25.390625,-969.7265625,39.55078125,170.41015625,-0.48828125
1510191130.9495971,23.92578125,-948.73046875,52.24609375,198.2421875,0.9765625
1510191130.9535034,0.48828125,-939.453125,34.66796875,18.06640625,6.8359375
1510191130.9574096,23.92578125,-992.1875,14.6484375,-62.01171875,3.41796875
1510191130.9613159,41.9921875,-897.94921875,36.62109375,116.2109375,52.24609375
1510191130.9652221,6.8359375,-748.046875,55.17578125,234.375,72.265625
1510191130.9677863,-17.578125,-870.60546875,31.25,51.7578125,35.15625
1510191130.9716926,-5.859375,-984.86328125,6.34765625,-92.7734375,-46.38671875
1510191130.9755988,12.20703125,-973.6328125,25.87890625,53.22265625,-54.6875
1510191130.979505,51.26953125,-830.078125,56.640625,220.21484375,-8.30078125
1510191130.9834113,45.8984375,-854.00390625,37.109375,108.3984375,6.8359375
1510191130.9873176,-0.9765625,-979.4921875,11.23046875,-69.3359375,26.85546875
1510191130.9912238,-24.90234375,-993.1640625,20.5078125,-15.625,23.4375
1510191130.99513,3.90625,-830.078125,54.19921875,194.3359375,73.73046875
1510191130.9990363,28.80859375,-781.73828125,52.734375,172.8515625,51.26953125
1510191131.0029426,6.8359375,-971.6796875,17.578125,-30.2734375,11.23046875
1510191131.0068488,3.90625,-985.83984375,11.71875,-70.80078125,43.9453125
1510191131.010755,19.04296875,-925.78125,42.48046875,137.20703125,9.765625
1510191131.02733,23.4375,-861.328125,51.26953125,217.7734375,-9.27734375
1510191131.0312362,12.20703125,-953.125,25.87890625,35.64453125,6.8359375
1510191131.0351424,8.30078125,-979.00390625,13.18359375,-72.265625,-30.2734375
1510191131.0390487,4.8828125,-964.35546875,36.1328125,100.5859375,-56.15234375
1510191131.042955,3.41796875,-969.7265625,57.6171875,260.25390625,-29.78515625
1510191131.0468612,3.41796875,-968.75,31.73828125,83.49609375,-26.3671875
1510191131.0507674,0.48828125,-970.703125,6.34765625,-62.01171875,-31.73828125
1510191131.0546737,3.90625,-971.6796875,26.85546875,60.05859375,-10.25390625
1510191131.05858,19.53125,-949.70703125,47.36328125,224.12109375,-5.37109375
1510191131.0624862,18.5546875,-956.54296875,26.3671875,138.18359375,-11.23046875
1510191131.0663924,3.90625,-974.12109375,2.9296875,-65.4296875,-5.37109375
1510191131.0702987,-6.8359375,-969.23828125,19.04296875,-34.1796875,17.08984375
1510191131.0723598,-7.8125,-964.35546875,41.9921875,187.01171875,22.94921875
1510191131.076266,-24.4140625,-966.796875,40.52734375,193.359375,21.97265625
1510191131.0801723,-4.8828125,-971.19140625,24.4140625,-6.34765625,20.99609375
1510191131.0840786,31.25,-969.7265625,17.578125,-36.62109375,-4.39453125
1510191131.0879848,27.83203125,-970.21484375,41.50390625,151.85546875,30.2734375
1510191131.091891,16.11328125,-970.21484375,49.8046875,196.77734375,22.94921875
1510191131.0957973,-13.671875,-969.7265625,29.296875,1.953125,58.10546875
1510191131.0997036,-29.296875,-970.21484375,18.06640625,-102.5390625,113.28125
1510191131.1036098,-25.87890625,-970.703125,34.1796875,60.05859375,73.2421875
1510191131.107516,-16.11328125,-961.9140625,53.7109375,196.2890625,42.48046875
1510191131.1114223,-25.390625,-965.8203125,41.9921875,48.828125,42.96875
1510191131.1153286,-43.45703125,-969.7265625,19.53125,-108.3984375,21.97265625
1510191131.1173942,-22.4609375,-974.609375,18.06640625,-5.37109375,-27.34375
1510191131.1213005,2.44140625,-954.1015625,45.41015625,182.6171875,-8.7890625
1510191131.1252067,-5.37109375,-937.98828125,48.828125,122.0703125,21.97265625
1510191131.129113,-48.828125,-969.7265625,18.06640625,-63.96484375,-11.23046875
1510191131.1330192,-52.24609375,-971.6796875,16.11328125,-58.59375,-61.5234375
1510191131.1369255,6.34765625,-967.28515625,40.0390625,164.55078125,-48.828125
1510191131.1408317,3.90625,-969.23828125,48.828125,181.15234375,-14.6484375
1510191131.144738,-35.64453125,-968.75,23.92578125,-14.16015625,-6.34765625
1510191131.1486442,-12.6953125,-970.703125,3.41796875,-86.42578125,-24.90234375
1510191131.1525505,13.18359375,-971.6796875,40.0390625,99.609375,3.90625
1510191131.1564567,5.37109375,-908.69140625,70.80078125,231.93359375,52.734375
1510191131.160363,2.44140625,-917.48046875,32.71484375,59.5703125,6.8359375
1510191131.1624238,7.8125,-982.91015625,11.23046875,-82.51953125,-35.15625
1510191131.16633,20.5078125,-960.9375,39.0625,78.61328125,35.15625
1510191131.1702363,26.3671875,-806.640625,60.546875,253.90625,55.6640625
1510191131.1741426,10.7421875,-850.5859375,36.62109375,109.86328125,46.38671875
1510191131.1780488,-5.37109375,-984.86328125,11.23046875,-69.82421875,37.59765625
1510191131.181955,2.44140625,-974.12109375,18.5546875,4.39453125,-6.34765625
1510191131.1858613,34.66796875,-926.7578125,47.8515625,215.33203125,8.30078125
1510191131.1897676,25.87890625,-917.48046875,36.62109375,172.36328125,13.671875
1510191131.1936738,-2.44140625,-968.75,5.37109375,-46.38671875,4.8828125
1510191131.19758,-7.8125,-988.28125,15.625,-67.87109375,1.953125
1510191131.2014863,13.671875,-891.6015625,46.875,160.15625,13.18359375
1510191131.2053926,33.69140625,-859.86328125,51.26953125,223.14453125,32.71484375
1510191131.2079601,15.13671875,-976.5625,20.01953125,16.6015625,21.484375
1510191131.2118664,-11.71875,-973.14453125,12.20703125,-67.87109375,26.85546875
1510191131.2157726,2.9296875,-962.40234375,40.0390625,115.72265625,1.953125
1510191131.2196789,39.0625,-961.42578125,55.6640625,235.3515625,-22.94921875
1510191131.2235851,31.73828125,-970.21484375,31.25,71.2890625,24.90234375
1510191131.2274914,14.16015625,-970.703125,4.8828125,-71.77734375,25.87890625
1510191131.2313976,26.85546875,-969.7265625,27.83203125,63.96484375,5.859375
1510191131.2353039,41.50390625,-970.21484375,48.828125,237.3046875,-20.01953125
1510191131.2392101,12.20703125,-970.21484375,35.64453125,103.02734375,-18.06640625
1510191131.2431164,-25.390625,-970.21484375,21.484375,-72.75390625,-11.23046875
1510191131.2470226,-33.69140625,-970.21484375,28.3203125,12.6953125,27.83203125
1510191131.2509289,1.953125,-970.21484375,46.38671875,216.30859375,-8.7890625
1510191131.2524922,14.6484375,-970.21484375,45.41015625,169.921875,-49.31640625
1510191131.2563984,-23.92578125,-970.21484375,20.5078125,-34.66796875,57.12890625
1510191131.2603047,-1.953125,-970.21484375,-0.48828125,-48.33984375,22.4609375
1510191131.264211,22.94921875,-970.21484375,23.4375,149.90234375,-40.52734375
1510191131.2681172,11.23046875,-970.21484375,41.50390625,207.03125,-18.06640625
1510191131.2720234,0.48828125,-968.75,20.99609375,13.18359375,-21.484375
1510191131.2759297,-3.41796875,-971.19140625,-0.9765625,-118.65234375,13.671875
1510191131.279836,16.11328125,-970.703125,16.11328125,83.0078125,41.50390625
1510191131.2837422,25.390625,-938.4765625,48.828125,255.859375,43.9453125
1510191131.2876484,4.8828125,-954.58984375,27.83203125,68.84765625,20.01953125
1510191131.2915547,-4.39453125,-975.5859375,4.39453125,-76.66015625,-20.5078125
1510191131.295461,37.59765625,-967.7734375,17.08984375,43.9453125,-22.94921875
1510191131.2977104,66.40625,-970.703125,37.109375,224.12109375,-19.53125
1510191131.3016167,43.9453125,-970.21484375,32.71484375,131.8359375,2.9296875
1510191131.305523,17.08984375,-970.21484375,10.25390625,-74.21875,5.859375
1510191131.3094292,17.578125,-970.21484375,10.7421875,-24.90234375,-24.90234375
1510191131.3133354,49.8046875,-970.21484375,36.62109375,209.9609375,-4.8828125
1510191131.3172417,55.17578125,-970.21484375,39.55078125,201.66015625,45.41015625
1510191131.321148,32.2265625,-970.21484375,-2.9296875,-14.16015625,26.3671875
1510191131.3250542,12.20703125,-970.21484375,-12.20703125,-88.37890625,28.80859375
1510191131.3289604,4.8828125,-970.21484375,33.203125,112.3046875,24.4140625
1510191131.3328667,27.83203125,-969.7265625,42.48046875,216.30859375,-28.3203125
1510191131.336773,50.78125,-970.21484375,11.23046875,27.83203125,33.203125
1510191131.3406792,34.1796875,-970.21484375,-2.44140625,-99.12109375,25.390625
1510191131.342244,33.69140625,-970.21484375,18.06640625,51.7578125,-34.1796875
1510191131.3461502,70.80078125,-970.21484375,35.15625,236.81640625,-15.13671875
1510191131.3500564,32.71484375,-970.21484375,16.11328125,96.6796875,20.99609375
1510191131.3539627,-3.90625,-970.21484375,-0.48828125,-71.77734375,44.43359375
1510191131.357869,45.8984375,-970.21484375,15.625,44.921875,6.34765625
1510191131.3617752,62.01171875,-970.21484375,36.1328125,252.44140625,-7.32421875
1510191131.3656814,70.80078125,-969.7265625,22.94921875,187.98828125,24.4140625
1510191131.3695877,69.82421875,-970.21484375,3.41796875,-27.34375,-25.87890625
1510191131.373494,68.84765625,-970.21484375,8.30078125,-15.13671875,-45.8984375
1510191131.3774002,81.0546875,-970.21484375,36.1328125,191.40625,-21.484375
1510191131.3813064,64.453125,-970.21484375,39.0625,214.84375,39.0625
1510191131.3852127,33.69140625,-969.7265625,11.71875,17.08984375,43.45703125
1510191131.4027872,23.4375,-970.21484375,1.953125,-64.94140625,-3.41796875
1510191131.4066935,59.08203125,-970.21484375,28.3203125,125.9765625,-20.5078125
1510191131.4105997,72.75390625,-970.21484375,42.96875,240.72265625,30.76171875
1510191131.414506,66.89453125,-970.21484375,15.625,51.26953125,39.55078125
1510191131.4184122,49.8046875,-970.21484375,2.44140625,-92.28515625,-5.37109375
1510191131.4223185,45.41015625,-970.21484375,11.23046875,54.6875,-18.06640625
1510191131.4262247,67.87109375,-970.21484375,34.1796875,237.79296875,-26.85546875
1510191131.430131,61.03515625,-970.21484375,31.73828125,103.02734375,19.04296875
1510191131.4340372,40.0390625,-970.21484375,7.8125,-83.49609375,41.9921875
1510191131.4379435,46.875,-970.21484375,11.71875,-8.7890625,-4.8828125
1510191131.4418497,37.109375,-970.21484375,38.0859375,185.546875,21.97265625
1510191131.445756,35.15625,-970.21484375,32.71484375,130.37109375,65.91796875
1510191131.4473367,24.4140625,-970.21484375,-4.8828125,-83.0078125,0.48828125
1510191131.451243,19.53125,-970.21484375,-1.953125,-83.49609375,6.34765625
1510191131.4551492,65.91796875,-970.21484375,32.71484375,146.484375,-8.30078125
1510191131.4590554,77.1484375,-970.21484375,41.50390625,211.9140625,-62.5
1510191131.4629617,49.8046875,-970.21484375,15.625,8.30078125,-5.37109375
1510191131.466868,10.25390625,-970.21484375,-0.9765625,-105.95703125,40.0390625
1510191131.4707742,5.37109375,-969.7265625,28.80859375,89.84375,17.578125
1510191131.4746804,44.43359375,-969.7265625,56.15234375,250.48828125,15.13671875
1510191131.4785867,39.0625,-970.21484375,29.78515625,86.42578125,6.34765625
1510191131.482493,11.23046875,-970.21484375,5.37109375,-81.54296875,39.0625
1510191131.4863992,-1.953125,-969.7265625,26.85546875,65.91796875,99.12109375
1510191131.4903054,28.80859375,-969.7265625,57.12890625,272.4609375,86.42578125
1510191131.4924605,34.1796875,-970.21484375,37.59765625,166.015625,63.96484375
1510191131.4963667,7.8125,-970.21484375,2.9296875,-15.13671875,-20.5078125
1510191131.500273,35.15625,-970.21484375,10.7421875,34.66796875,-38.0859375
1510191131.5041792,27.83203125,-969.7265625,36.1328125,247.55859375,71.2890625
1510191131.5080855,0.9765625,-969.7265625,24.90234375,229.98046875,-7.8125
1510191131.5119917,-19.04296875,-969.7265625,-2.44140625,14.16015625,-57.6171875
1510191131.515898,-4.39453125,-971.6796875,3.41796875,-30.76171875,54.19921875
1510191131.5198042,26.85546875,-961.42578125,33.69140625,192.3828125,47.8515625
1510191131.5237105,28.80859375,-961.42578125,31.73828125,262.20703125,-7.8125
1510191131.5276167,10.7421875,-971.6796875,12.20703125,56.15234375,23.92578125
1510191131.531523,-3.90625,-967.28515625,5.859375,-45.41015625,-22.4609375
1510191131.5354292,11.23046875,-979.00390625,24.4140625,132.32421875,-17.578125
1510191131.5374932,26.3671875,-923.33984375,44.921875,292.48046875,29.78515625
1510191131.5413995,21.484375,-909.66796875,23.92578125,125.0,33.203125
1510191131.5453057,21.97265625,-970.703125,0.0,-41.9921875,-5.859375
1510191131.549212,16.11328125,-990.72265625,13.671875,86.42578125,-39.55078125
1510191131.5531182,29.296875,-835.9375,45.41015625,265.625,58.10546875
1510191131.5570245,47.8515625,-838.37890625,34.1796875,168.45703125,79.58984375
1510191131.5609307,11.23046875,-985.3515625,0.48828125,-15.13671875,-11.71875
1510191131.564837,-16.6015625,-976.5625,4.39453125,11.71875,3.41796875
1510191131.5687432,-8.30078125,-941.40625,32.2265625,213.37890625,31.73828125
1510191131.5726495,15.625,-884.765625,38.57421875,208.0078125,-14.16015625
1510191131.5765557,-6.8359375,-948.2421875,13.671875,19.53125,-12.20703125
1510191131.580462,-32.2265625,-989.74609375,4.8828125,-41.9921875,62.98828125
1510191131.5825267,22.94921875,-925.78125,29.296875,139.16015625,33.69140625
1510191131.586433,47.36328125,-805.6640625,39.0625,234.86328125,-36.1328125
1510191131.5903392,0.0,-895.99609375,12.6953125,51.7578125,8.7890625
1510191131.5942454,-31.25,-990.234375,-5.37109375,-59.08203125,-3.41796875
1510191131.5981517,-19.53125,-949.70703125,20.5078125,94.7265625,-21.97265625
1510191131.602058,17.08984375,-918.45703125,43.9453125,255.37109375,27.34375
1510191131.6059642,17.578125,-955.078125,28.3203125,102.05078125,26.3671875
1510191131.6098704,6.8359375,-969.7265625,-3.41796875,-70.3125,-29.296875
1510191131.6137767,1.953125,-988.28125,8.7890625,8.7890625,5.37109375
1510191131.617683,31.25,-852.05078125,51.26953125,217.28515625,27.34375
1510191131.6215892,49.8046875,-845.703125,40.0390625,196.2890625,-12.20703125
1510191131.6254954,29.78515625,-976.5625,9.27734375,-23.4375,-39.0625
1510191131.6275582,22.4609375,-996.58203125,12.20703125,-38.0859375,-7.8125
1510191131.6314645,22.94921875,-857.421875,47.36328125,182.12890625,22.94921875
1510191131.6353707,21.484375,-750.48828125,49.31640625,223.6328125,78.61328125
1510191131.639277,10.25390625,-955.078125,17.08984375,11.23046875,42.96875
1510191131.6431832,16.6015625,-982.421875,9.27734375,-71.77734375,-30.2734375
1510191131.6470895,15.13671875,-958.984375,32.2265625,137.20703125,-30.2734375
1510191131.6509957,24.90234375,-968.26171875,42.96875,254.8828125,-28.80859375
1510191131.654902,10.25390625,-965.8203125,16.6015625,41.50390625,-37.59765625
1510191131.6588082,-30.76171875,-978.515625,10.25390625,-107.421875,-60.05859375
1510191131.6627145,6.34765625,-950.1953125,36.1328125,64.453125,-36.62109375
1510191131.6666207,60.05859375,-895.99609375,58.59375,251.953125,15.625
1510191131.670527,48.828125,-945.80078125,39.55078125,108.3984375,11.23046875
1510191131.67259,8.7890625,-971.19140625,12.20703125,-77.1484375,15.625
1510191131.6764963,11.23046875,-975.5859375,19.53125,8.30078125,5.37109375
1510191131.6804025,35.15625,-946.77734375,49.31640625,206.54296875,3.41796875
1510191131.6843088,10.7421875,-924.8046875,47.8515625,173.828125,21.97265625
1510191131.688215,-20.99609375,-971.19140625,20.5078125,-34.66796875,33.69140625
1510191131.6921213,-17.578125,-971.6796875,17.578125,-57.6171875,39.0625
1510191131.6960275,7.32421875,-968.26171875,32.71484375,158.69140625,18.06640625
1510191131.6999338,24.90234375,-971.19140625,40.0390625,192.87109375,-11.23046875
1510191131.70384,14.6484375,-965.8203125,28.3203125,-4.39453125,-7.8125
1510191131.7077463,2.44140625,-977.5390625,11.23046875,-90.33203125,32.2265625
1510191131.7116525,13.671875,-953.61328125,32.71484375,96.19140625,41.50390625
1510191131.7155588,36.1328125,-885.25390625,52.734375,241.2109375,8.7890625
1510191131.7176204,19.04296875,-942.87109375,33.203125,68.84765625,-24.4140625
1510191131.7215266,0.48828125,-979.00390625,10.7421875,-82.51953125,24.4140625
1510191131.7254329,10.7421875,-970.21484375,27.83203125,51.7578125,9.27734375
1510191131.7293391,0.9765625,-939.453125,55.6640625,241.69921875,-51.7578125
1510191131.7332454,19.04296875,-944.3359375,43.45703125,137.6953125,-19.04296875
1510191131.7371516,36.1328125,-968.75,12.6953125,-56.640625,44.43359375
1510191131.7410579,14.6484375,-987.79296875,13.671875,-11.71875,48.33984375
1510191131.7449641,23.4375,-890.13671875,57.6171875,195.3125,42.96875
1510191131.7488704,47.8515625,-815.4296875,57.6171875,177.24609375,86.42578125
1510191131.7527766,45.8984375,-950.68359375,18.5546875,1.46484375,64.94140625
1510191131.7566829,15.625,-992.1875,22.94921875,-31.73828125,2.44140625
1510191131.7605891,24.4140625,-916.015625,53.7109375,162.109375,3.90625
1510191131.7781732,48.828125,-873.046875,52.734375,251.46484375,-14.16015625
1510191131.7820795,13.671875,-957.51953125,22.94921875,44.43359375,-20.5078125
1510191131.7859857,-10.7421875,-983.88671875,7.8125,-80.078125,-35.15625
1510191131.789892,11.23046875,-949.70703125,33.69140625,96.6796875,-22.94921875
1510191131.7937982,19.53125,-874.0234375,53.22265625,250.48828125,26.3671875
1510191131.7977045,-7.8125,-939.453125,26.85546875,96.6796875,18.5546875
1510191131.8016107,-9.765625,-979.98046875,7.8125,-68.84765625,58.59375
1510191131.805517,-0.48828125,-973.6328125,27.34375,31.25,54.19921875
1510191131.8094232,7.8125,-916.50390625,49.31640625,231.93359375,5.859375
1510191131.8133295,34.66796875,-916.9921875,23.92578125,142.578125,29.296875
1510191131.8172357,23.4375,-979.98046875,-2.44140625,-66.89453125,-10.25390625
1510191131.821142,7.32421875,-969.7265625,7.8125,-38.0859375,-26.3671875
1510191131.822695,14.16015625,-947.265625,34.1796875,172.36328125,-2.9296875
1510191131.8266013,18.06640625,-957.51953125,33.69140625,199.70703125,-38.0859375
1510191131.8305075,2.44140625,-974.609375,5.859375,-3.41796875,-53.7109375
1510191131.8344138,-11.71875,-968.26171875,4.8828125,-77.1484375,0.48828125
1510191131.83832,-7.8125,-970.703125,32.2265625,119.62890625,78.125
1510191131.8422263,1.46484375,-970.21484375,31.25,207.51953125,-0.48828125
1510191131.8461325,-12.20703125,-970.21484375,4.39453125,31.73828125,-32.2265625
1510191131.8500388,-15.13671875,-970.21484375,-5.859375,-71.2890625,13.671875
1510191131.853945,6.34765625,-970.21484375,14.16015625,95.703125,29.78515625
1510191131.8578513,25.390625,-970.703125,30.76171875,245.1171875,56.15234375
1510191131.8617575,12.6953125,-967.28515625,20.99609375,85.9375,57.6171875
1510191131.8656638,-7.8125,-966.30859375,4.8828125,-85.44921875,43.45703125
1510191131.8682308,-4.39453125,-986.328125,20.99609375,16.11328125,29.78515625
1510191131.872137,21.484375,-824.70703125,51.26953125,219.7265625,20.01953125
1510191131.8760433,16.6015625,-800.29296875,43.45703125,155.2734375,28.3203125
1510191131.8799496,12.6953125,-973.6328125,9.765625,-39.55078125,28.80859375
1510191131.8838558,17.08984375,-977.05078125,7.32421875,-27.83203125,-39.55078125
1510191131.887762,8.7890625,-949.21875,40.0390625,169.43359375,-37.109375
1510191131.8916683,2.9296875,-940.4296875,41.9921875,204.1015625,7.32421875
1510191131.8955746,-2.44140625,-962.40234375,16.11328125,1.953125,11.71875
1510191131.8994808,-5.859375,-988.28125,-6.8359375,-96.19140625,3.90625
1510191131.903387,11.71875,-910.64453125,15.13671875,99.609375,14.6484375
1510191131.9072933,31.73828125,-764.16015625,44.43359375,230.95703125,17.08984375
1510191131.9111996,3.41796875,-895.99609375,18.06640625,52.24609375,-27.34375
1510191131.9122589,-20.5078125,-981.4453125,3.90625,-84.9609375,-29.296875
1510191131.916165,-13.18359375,-983.3984375,25.390625,41.9921875,-2.44140625
1510191131.9200714,2.9296875,-870.1171875,45.8984375,208.0078125,27.34375
1510191131.9239776,-13.18359375,-831.0546875,29.78515625,98.14453125,57.6171875
1510191131.9278839,-19.04296875,-972.16796875,5.859375,-80.078125,50.78125
1510191131.93179,14.16015625,-989.74609375,19.04296875,2.44140625,28.3203125
1510191131.9356964,35.64453125,-889.16015625,55.17578125,205.078125,8.7890625
1510191131.9396026,27.83203125,-866.2109375,49.31640625,174.31640625,2.44140625
1510191131.9435089,13.18359375,-969.7265625,14.16015625,-27.83203125,-4.39453125
1510191131.947415,7.32421875,-997.0703125,22.94921875,-64.453125,-14.16015625
1510191131.9513214,9.765625,-854.4921875,55.6640625,141.6015625,30.2734375
1510191131.9552276,17.08984375,-813.96484375,57.6171875,213.8671875,23.4375
1510191131.9577918,13.18359375,-975.5859375,29.296875,18.5546875,-32.2265625
1510191131.961698,7.32421875,-985.83984375,19.04296875,-87.40234375,-0.9765625
1510191131.9656043,41.015625,-918.9453125,45.8984375,107.91015625,21.97265625
1510191131.9695106,66.40625,-852.5390625,66.89453125,265.13671875,34.66796875
1510191131.9734168,30.76171875,-952.63671875,40.0390625,89.35546875,12.20703125
1510191131.977323,4.8828125,-978.515625,19.04296875,-73.73046875,-33.69140625
1510191131.9812293,20.5078125,-964.84375,35.64453125,51.26953125,-52.734375
1510191131.9851356,31.25,-970.703125,52.24609375,221.6796875,-8.7890625
1510191131.9890418,16.6015625,-970.703125,41.9921875,112.3046875,29.296875
1510191131.992948,-10.7421875,-964.84375,25.87890625,-67.87109375,10.7421875
1510191131.9968543,8.30078125,-984.86328125,26.3671875,-4.39453125,-47.8515625
1510191132.0007606,52.24609375,-912.109375,52.24609375,196.77734375,-31.25
1510191132.0023432,39.0625,-872.0703125,55.17578125,187.5,21.97265625
1510191132.0062494,11.71875,-964.35546875,24.90234375,-3.41796875,3.41796875
1510191132.0101557,7.8125,-984.86328125,9.765625,-62.01171875,-23.4375
1510191132.014062,20.5078125,-940.91796875,40.52734375,141.11328125,-30.76171875
1510191132.0179682,30.2734375,-867.67578125,56.15234375,223.14453125,23.4375
1510191132.0218744,15.625,-946.2890625,21.484375,20.99609375,22.4609375
1510191132.0257807,-10.25390625,-980.46875,0.9765625,-80.56640625,-24.4140625
1510191132.029687,-12.20703125,-968.26171875,27.83203125,85.44921875,17.08984375
1510191132.0335932,5.859375,-922.8515625,69.82421875,226.07421875,0.48828125
1510191132.0374994,12.6953125,-930.6640625,51.7578125,67.3828125,3.41796875
1510191132.0414057,5.859375,-974.12109375,13.671875,-92.7734375,-12.20703125
1510191132.045312,5.37109375,-981.93359375,33.203125,26.85546875,-7.8125
1510191132.047373,12.20703125,-876.953125,65.91796875,232.421875,45.8984375
1510191132.0512793,17.08984375,-869.140625,54.19921875,137.20703125,53.7109375
1510191132.0551856,-7.8125,-979.00390625,28.80859375,-61.03515625,115.234375
1510191132.0590918,-22.94921875,-974.12109375,32.2265625,-32.71484375,108.3984375
1510191132.062998,2.44140625,-941.40625,60.05859375,178.7109375,-5.859375
1510191132.0669043,4.8828125,-943.359375,60.05859375,200.68359375,6.34765625
1510191132.0708106,-20.99609375,-971.6796875,29.78515625,-5.37109375,29.78515625
1510191132.0747168,-19.04296875,-975.5859375,24.90234375,-69.3359375,-8.7890625
1510191132.078623,22.94921875,-954.58984375,57.6171875,125.9765625,-38.57421875
1510191132.0825293,44.43359375,-906.25,71.2890625,238.28125,-44.43359375
1510191132.0864356,25.87890625,-952.1484375,42.48046875,53.22265625,7.32421875
1510191132.0903418,5.859375,-981.93359375,28.3203125,-90.8203125,7.32421875
1510191132.0924067,-6.8359375,-959.47265625,57.12890625,71.77734375,-31.25
1510191132.096313,10.7421875,-903.80859375,75.68359375,253.90625,-18.5546875
1510191132.1002192,19.04296875,-947.75390625,52.734375,100.09765625,-10.7421875
1510191132.1041255,-10.7421875,-979.4921875,36.1328125,-88.37890625,3.90625
1510191132.1080317,-3.41796875,-965.33203125,48.828125,18.06640625,38.57421875
1510191132.111938,36.62109375,-971.19140625,70.80078125,230.95703125,29.296875
1510191132.1158442,47.8515625,-969.7265625,63.96484375,160.15625,41.015625
1510191132.1197505,15.625,-970.21484375,33.69140625,-42.96875,34.1796875
1510191132.1236567,-14.6484375,-970.21484375,32.2265625,-33.203125,2.9296875
1510191132.127563,11.71875,-965.8203125,57.12890625,186.5234375,34.1796875
1510191132.1314692,28.80859375,-968.26171875,60.05859375,206.0546875,30.76171875
1510191132.1353755,6.8359375,-970.21484375,41.50390625,-3.90625,-19.04296875
1510191132.1524844,-15.625,-969.7265625,32.71484375,-65.4296875,18.5546875
1510191132.1563907,-0.9765625,-972.16796875,57.6171875,102.05078125,5.859375
1510191132.160297,24.90234375,-953.125,69.3359375,217.28515625,-85.44921875
1510191132.1642032,10.25390625,-958.49609375,48.828125,65.91796875,-19.53125
1510191132.1681094,0.48828125,-972.65625,26.3671875,-83.984375,2.44140625
1510191132.1720157,19.53125,-970.21484375,36.1328125,52.24609375,-19.04296875
1510191132.175922,34.66796875,-966.796875,62.01171875,240.234375,5.37109375
1510191132.1798282,22.94921875,-963.8671875,46.38671875,123.046875,-38.57421875
1510191132.1837344,-1.953125,-962.890625,20.01953125,-74.70703125,-19.53125
1510191132.1876407,22.4609375,-991.2109375,25.390625,-3.90625,43.9453125
1510191132.191547,52.24609375,-874.0234375,55.6640625,200.1953125,27.83203125
1510191132.1954532,29.78515625,-810.546875,56.640625,163.0859375,41.9921875
1510191132.1975002,-2.9296875,-956.0546875,21.97265625,-31.25,25.390625
1510191132.2014065,-0.48828125,-992.67578125,13.671875,-42.96875,-10.7421875
1510191132.2053127,14.6484375,-902.83203125,47.36328125,141.11328125,-10.25390625
1510191132.209219,5.37109375,-810.546875,59.08203125,201.66015625,4.39453125
1510191132.2131252,1.953125,-929.19921875,26.3671875,24.4140625,21.484375
1510191132.2170315,14.16015625,-977.5390625,1.953125,-76.171875,-15.13671875
1510191132.2209377,45.41015625,-978.02734375,31.25,105.95703125,-23.92578125
1510191132.224844,57.6171875,-872.0703125,58.59375,242.67578125,8.7890625
1510191132.2287502,41.015625,-853.02734375,28.3203125,63.96484375,51.26953125
1510191132.2326565,14.16015625,-975.5859375,-0.9765625,-100.09765625,12.6953125
1510191132.2365627,19.04296875,-990.72265625,24.4140625,30.76171875,-21.484375
1510191132.240469,26.3671875,-858.88671875,54.6875,211.9140625,17.08984375
1510191132.2425141,11.71875,-840.33203125,34.1796875,107.421875,7.8125
1510191132.2464204,16.6015625,-979.00390625,3.90625,-71.2890625,13.18359375
1510191132.2503266,-15.13671875,-985.83984375,15.625,-19.04296875,31.73828125
1510191132.254233,-33.203125,-876.953125,44.43359375,199.70703125,-19.53125
1510191132.2581391,21.484375,-866.69921875,39.55078125,196.77734375,-40.0390625
1510191132.2620454,30.76171875,-980.95703125,8.30078125,-15.13671875,-11.23046875
1510191132.2659516,18.06640625,-975.09765625,3.90625,-56.15234375,9.27734375
1510191132.269858,20.5078125,-931.15234375,35.15625,142.578125,38.57421875
1510191132.2737641,30.76171875,-933.10546875,31.25,220.703125,-6.34765625
1510191132.2776704,29.78515625,-976.07421875,5.859375,17.578125,-44.921875
1510191132.2815766,-15.625,-969.23828125,6.8359375,-107.421875,14.6484375
1510191132.285483,-46.875,-964.84375,27.83203125,69.3359375,45.8984375
1510191132.2875638,4.39453125,-945.3125,40.52734375,234.375,-14.16015625
1510191132.29147,17.578125,-953.61328125,23.4375,81.0546875,-45.41015625
1510191132.2953763,-4.8828125,-970.21484375,2.44140625,-83.0078125,-12.20703125
1510191132.2992826,15.625,-981.4453125,11.23046875,26.85546875,32.2265625
1510191132.3031888,20.99609375,-900.87890625,38.57421875,230.46875,51.7578125
1510191132.307095,15.13671875,-902.83203125,26.3671875,150.87890625,0.0
1510191132.3110013,-4.8828125,-977.05078125,1.46484375,-45.41015625,-3.41796875
1510191132.3149076,-1.46484375,-978.02734375,8.7890625,-18.06640625,21.97265625
1510191132.3188138,30.76171875,-941.89453125,34.1796875,186.03515625,31.73828125
1510191132.32272,32.71484375,-882.32421875,49.31640625,196.2890625,8.7890625
1510191132.3266263,11.71875,-946.77734375,23.92578125,2.44140625,2.9296875
1510191132.3305326,-27.34375,-990.72265625,5.859375,-66.89453125,5.859375
1510191132.332596,-14.6484375,-920.41015625,36.1328125,121.58203125,-24.90234375
1510191132.3365023,42.96875,-765.13671875,57.12890625,249.0234375,11.71875
1510191132.3404086,30.2734375,-862.79296875,29.296875,72.75390625,57.12890625
1510191132.3443148,-2.44140625,-986.328125,5.37109375,-78.61328125,6.34765625
1510191132.348221,9.27734375,-965.33203125,25.87890625,63.96484375,-27.34375
1510191132.3521273,23.92578125,-950.1953125,50.78125,248.046875,21.484375
1510191132.3560336,7.32421875,-951.66015625,35.64453125,119.62890625,17.08984375
1510191132.3599398,-7.32421875,-968.75,3.90625,-66.40625,-8.7890625
1510191132.363846,6.8359375,-984.86328125,18.5546875,11.71875,34.1796875
1510191132.3677523,13.671875,-872.0703125,55.6640625,207.03125,-11.71875
1510191132.3716586,26.85546875,-847.65625,41.9921875,163.57421875,-50.29296875
1510191132.3755648,45.41015625,-971.6796875,10.7421875,-27.34375,-40.0390625
1510191132.3776073,37.109375,-983.88671875,16.6015625,-28.80859375,-12.20703125
1510191132.3815136,31.25,-909.1796875,48.33984375,187.98828125,-9.27734375
1510191132.3854198,24.90234375,-892.578125,48.828125,229.00390625,-34.1796875
1510191132.389326,7.8125,-975.5859375,27.34375,0.9765625,41.015625
1510191132.3932323,0.0,-971.6796875,12.20703125,-87.890625,11.23046875
1510191132.3971386,15.13671875,-966.30859375,32.71484375,111.81640625,-73.2421875
1510191132.4010448,31.73828125,-965.33203125,52.734375,236.328125,6.34765625
1510191132.404951,6.34765625,-966.30859375,25.87890625,62.01171875,41.50390625
1510191132.4088573,-25.87890625,-976.5625,16.11328125,-87.40234375,27.34375
1510191132.4127636,1.953125,-958.49609375,39.0625,44.921875,35.64453125
1510191132.4166698,34.66796875,-907.2265625,55.6640625,231.4453125,40.0390625
1510191132.420576,21.97265625,-952.1484375,33.69140625,113.28125,24.4140625
1510191132.42266,-17.578125,-975.5859375,10.7421875,-70.3125,21.484375
1510191132.4265664,-14.16015625,-970.21484375,22.4609375,-6.8359375,63.96484375
1510191132.4304726,25.390625,-958.49609375,45.8984375,198.2421875,45.41015625
1510191132.4343789,37.59765625,-946.77734375,40.52734375,170.41015625,21.484375
1510191132.438285,16.6015625,-970.703125,7.8125,-29.78515625,14.6484375
1510191132.4421914,26.3671875,-970.703125,-3.90625,-33.69140625,-13.18359375
1510191132.4460976,41.50390625,-969.23828125,29.296875,167.96875,32.2265625
1510191132.4500039,25.390625,-971.19140625,53.7109375,197.265625,51.7578125
1510191132.45391,-9.27734375,-963.8671875,37.59765625,-3.90625,-8.30078125
1510191132.4578164,-18.06640625,-979.00390625,19.04296875,-90.33203125,-9.765625
1510191132.4617226,6.34765625,-952.1484375,45.41015625,90.33203125,19.53125
1510191132.4656289,0.0,-809.5703125,78.61328125,234.375,91.796875
1510191132.4676936,-32.2265625,-879.39453125,60.546875,66.40625,88.8671875
1510191132.4715998,-46.875,-985.83984375,36.62109375,-103.515625,37.109375
1510191132.475506,-36.62109375,-968.26171875,60.05859375,29.296875,27.83203125
1510191132.4794123,-1.953125,-940.91796875,94.23828125,231.4453125,-23.4375
1510191132.4833186,19.53125,-941.89453125,82.03125,127.9296875,-32.2265625
1510191132.4872248,2.9296875,-970.21484375,50.78125,-58.59375,5.859375
1510191132.491131,-19.04296875,-984.86328125,48.828125,-9.765625,8.7890625
1510191132.4950373,-4.8828125,-887.6953125,84.47265625,177.734375,36.1328125
1510191132.4989436,32.2265625,-881.34765625,80.56640625,180.17578125,3.90625
1510191132.5028498,9.27734375,-976.07421875,46.38671875,-2.44140625,-38.57421875
1510191132.506756,-17.08984375,-982.91015625,42.96875,-56.15234375,-21.484375
1510191132.5106623,8.7890625,-922.36328125,70.80078125,132.32421875,-8.30078125
1510191132.5277603,30.76171875,-812.98828125,74.70703125,215.33203125,47.8515625
1510191132.5316665,12.6953125,-916.50390625,46.875,37.59765625,5.859375
1510191132.5355728,-2.44140625,-993.1640625,31.73828125,-81.54296875,-9.27734375
1510191132.539479,4.8828125,-943.84765625,50.29296875,70.3125,60.05859375
1510191132.5433853,28.3203125,-819.3359375,70.3125,231.4453125,57.6171875
1510191132.5472915,27.34375,-895.99609375,41.9921875,84.47265625,19.04296875
1510191132.5511978,1.953125,-985.3515625,15.625,-92.7734375,-54.19921875
1510191132.555104,3.41796875,-980.95703125,32.2265625,17.578125,-57.6171875
1510191132.5590103,32.2265625,-847.16796875,62.01171875,213.37890625,47.36328125
1510191132.5629165,32.71484375,-851.07421875,38.57421875,120.1171875,61.5234375
1510191132.5668228,-6.8359375,-988.28125,6.34765625,-68.359375,-42.48046875
1510191132.570729,-5.859375,-972.16796875,17.08984375,-23.4375,-58.10546875
1510191132.572289,20.5078125,-930.6640625,48.828125,190.4296875,-27.83203125
1510191132.5761952,23.4375,-934.08203125,56.640625,204.1015625,8.30078125
1510191132.5801015,0.0,-976.07421875,27.83203125,3.41796875,5.37109375
1510191132.5840077,-20.99609375,-968.75,14.16015625,-65.4296875,-2.44140625
1510191132.587914,2.44140625,-970.21484375,38.57421875,127.9296875,12.6953125
1510191132.5918202,38.57421875,-970.21484375,50.78125,219.7265625,39.0625
1510191132.5957265,34.1796875,-970.21484375,29.296875,21.484375,-11.71875
1510191132.5996327,7.8125,-970.21484375,13.671875,-85.44921875,-39.0625
1510191132.603539,11.71875,-970.21484375,29.296875,76.171875,65.4296875
1510191132.6074452,33.203125,-970.21484375,47.8515625,230.46875,70.80078125
1510191132.6113515,13.671875,-970.21484375,37.109375,103.02734375,-23.92578125
1510191132.6152577,-15.13671875,-965.33203125,16.6015625,-63.96484375,-9.27734375
1510191132.6178217,2.9296875,-985.83984375,22.4609375,29.296875,1.953125
1510191132.621728,28.80859375,-899.90234375,49.31640625,231.93359375,-17.08984375
1510191132.6256342,13.671875,-881.8359375,46.38671875,182.12890625,8.7890625
1510191132.6295404,6.34765625,-979.4921875,22.4609375,-25.390625,36.62109375
1510191132.6334467,14.6484375,-971.6796875,17.578125,-49.31640625,41.50390625
1510191132.637353,42.48046875,-959.9609375,41.9921875,151.85546875,67.3828125
1510191132.6412592,39.0625,-958.984375,50.78125,194.3359375,73.73046875
1510191132.6451654,-9.765625,-966.796875,28.3203125,5.859375,61.5234375
1510191132.6490717,-6.34765625,-977.05078125,8.30078125,-91.796875,80.078125
1510191132.652978,17.578125,-953.125,32.2265625,76.66015625,55.17578125
1510191132.6568842,35.15625,-867.1875,60.546875,237.3046875,28.80859375
1510191132.6607904,13.671875,-929.6875,37.109375,74.70703125,49.31640625
1510191132.6623554,-10.25390625,-981.93359375,14.16015625,-83.984375,14.6484375
1510191132.6662617,1.953125,-970.21484375,36.1328125,48.828125,-4.39453125
1510191132.670168,16.11328125,-927.24609375,62.5,227.5390625,-8.7890625
1510191132.6740742,15.13671875,-929.6875,42.96875,104.00390625,0.9765625
1510191132.6779804,-21.484375,-976.5625,12.6953125,-78.61328125,3.90625
1510191132.6818867,-16.6015625,-968.75,22.4609375,-20.01953125,23.4375
1510191132.685793,21.97265625,-969.7265625,52.734375,170.8984375,46.875
1510191132.6896992,41.9921875,-970.703125,42.48046875,172.8515625,-13.671875
1510191132.6936054,33.203125,-968.75,11.71875,-14.16015625,-23.92578125
1510191132.6975117,4.39453125,-973.14453125,19.04296875,-61.03515625,-34.66796875
1510191132.701418,15.625,-960.9375,50.29296875,130.37109375,-49.8046875
1510191132.7053242,18.06640625,-950.68359375,52.24609375,204.1015625,-22.94921875
1510191132.7073903,-15.625,-970.21484375,18.5546875,16.11328125,-43.9453125
1510191132.7112966,-13.671875,-971.19140625,5.859375,-93.75,-63.4765625
1510191132.7152028,22.4609375,-968.75,35.64453125,85.44921875,-27.34375
1510191132.719109,46.38671875,-968.26171875,47.36328125,232.91015625,26.85546875
1510191132.7230153,26.3671875,-969.7265625,19.53125,58.59375,-8.30078125
1510191132.7269216,-13.18359375,-970.21484375,0.48828125,-104.00390625,-61.03515625
1510191132.7308278,-6.8359375,-970.21484375,20.01953125,5.37109375,-42.96875
1510191132.734734,27.34375,-970.21484375,46.38671875,204.1015625,-28.80859375
1510191132.7386403,17.578125,-970.21484375,34.1796875,141.11328125,19.04296875
1510191132.7425466,-2.9296875,-970.21484375,14.16015625,-53.22265625,18.5546875
1510191132.7464528,1.953125,-970.21484375,21.484375,-19.53125,18.06640625
1510191132.750359,17.08984375,-970.21484375,48.828125,166.015625,4.39453125
1510191132.7524188,34.1796875,-970.21484375,52.24609375,157.71484375,10.7421875
1510191132.756325,19.04296875,-969.7265625,29.78515625,-34.66796875,17.578125
1510191132.7602313,0.48828125,-970.703125,18.5546875,-82.03125,10.7421875
1510191132.7641375,9.765625,-969.7265625,44.43359375,114.74609375,-12.20703125
1510191132.7680438,20.99609375,-964.35546875,59.5703125,185.546875,14.6484375
1510191132.77195,8.7890625,-968.26171875,32.71484375,13.18359375,11.23046875
1510191132.7758563,-13.671875,-970.703125,14.6484375,-75.68359375,-31.73828125
1510191132.7797625,3.41796875,-969.7265625,33.69140625,78.125,13.671875
1510191132.7836688,6.8359375,-970.21484375,62.98828125,219.23828125,-34.66796875
1510191132.787575,-0.48828125,-970.21484375,41.50390625,72.75390625,-54.6875
1510191132.7914813,11.71875,-968.75,13.18359375,-87.40234375,13.18359375
1510191132.7953875,25.87890625,-973.6328125,26.3671875,7.32421875,22.94921875
1510191132.7974696,49.31640625,-956.0546875,61.5234375,204.58984375,24.90234375
1510191132.8013759,32.2265625,-950.68359375,54.6875,133.30078125,19.04296875
1510191132.805282,-5.37109375,-972.16796875,20.99609375,-56.640625,15.625
1510191132.8091884,-1.46484375,-970.703125,26.85546875,-29.78515625,12.6953125
1510191132.8130946,37.59765625,-961.9140625,58.10546875,170.8984375,-7.32421875
1510191132.8170009,43.9453125,-965.8203125,53.22265625,190.4296875,-44.921875
1510191132.820907,12.20703125,-967.28515625,16.11328125,-11.71875,-46.875
1510191132.8248134,2.9296875,-976.07421875,12.20703125,-75.68359375,7.8125
1510191132.8287196,23.4375,-959.9609375,57.6171875,116.2109375,51.26953125
1510191132.8326259,41.015625,-879.39453125,65.91796875,216.796875,88.37890625
1510191132.836532,19.53125,-932.6171875,37.109375,32.71484375,75.1953125
1510191132.8404384,-1.953125,-983.3984375,23.4375,-96.6796875,22.94921875
1510191132.842481,13.671875,-964.35546875,37.59765625,68.84765625,-2.44140625
1510191132.8463871,44.43359375,-945.3125,59.5703125,244.62890625,12.20703125
1510191132.8502934,36.1328125,-959.47265625,31.73828125,89.84375,6.34765625
1510191132.8541996,13.18359375,-974.12109375,0.9765625,-104.4921875,-7.32421875
1510191132.858106,8.7890625,-968.26171875,16.6015625,-5.37109375,-24.90234375
1510191132.8620121,6.8359375,-970.703125,45.41015625,196.77734375,-41.015625
1510191132.8659184,9.765625,-970.21484375,41.015625,144.04296875,28.80859375
1510191132.8698246,2.44140625,-970.21484375,26.3671875,-50.29296875,89.35546875
1510191132.873731,3.90625,-970.21484375,26.85546875,-56.640625,47.36328125
1510191132.8776371,33.203125,-970.21484375,49.31640625,153.3203125,16.6015625
1510191132.8815434,34.1796875,-970.21484375,58.10546875,195.3125,65.91796875
1510191132.8854496,24.4140625,-970.21484375,33.69140625,0.48828125,46.875
1510191132.9025264,7.8125,-970.21484375,18.5546875,-82.03125,-5.859375
1510191132.9064326,2.9296875,-970.21484375,40.0390625,100.09765625,-11.71875
1510191132.9103389,26.3671875,-970.21484375,62.01171875,220.703125,11.71875
1510191132.9142451,12.6953125,-970.21484375,41.9921875,25.87890625,16.6015625
1510191132.9181514,-9.27734375,-970.21484375,14.16015625,-117.1875,-11.23046875
1510191132.9220576,2.9296875,-969.7265625,29.78515625,32.71484375,46.38671875
1510191132.9259639,32.2265625,-970.21484375,58.59375,220.703125,36.1328125
1510191132.9298701,22.4609375,-970.21484375,50.78125,104.4921875,-29.78515625
1510191132.9337764,5.859375,-969.23828125,34.66796875,-75.1953125,-58.10546875
1510191132.9376826,7.32421875,-973.6328125,39.55078125,-12.20703125,-37.59765625
1510191132.9415889,13.18359375,-955.078125,69.82421875,186.5234375,6.34765625
1510191132.9454951,24.4140625,-951.171875,73.73046875,167.96875,16.6015625
1510191132.947555,7.8125,-971.6796875,41.50390625,-17.08984375,-2.44140625
1510191132.9514613,5.859375,-971.19140625,32.71484375,-62.5,-0.9765625
1510191132.9553676,26.85546875,-966.30859375,62.5,133.30078125,0.48828125
1510191132.9592738,33.69140625,-959.9609375,76.66015625,215.8203125,13.18359375
1510191132.96318,-0.48828125,-967.7734375,51.7578125,23.92578125,19.53125
1510191132.9670863,-2.9296875,-972.65625,34.1796875,-70.80078125,30.2734375
1510191132.9709926,28.3203125,-969.7265625,61.03515625,92.7734375,0.0
1510191132.9748988,38.57421875,-935.05859375,91.796875,230.95703125,8.7890625
1510191132.978805,28.80859375,-955.078125,64.94140625,68.359375,5.859375
1510191132.9827113,15.625,-973.14453125,42.96875,-93.75,17.08984375
1510191132.9866176,25.390625,-976.5625,73.73046875,47.36328125,4.8828125
1510191132.9905238,38.0859375,-929.6875,103.02734375,248.046875,-55.6640625
1510191132.9925873,23.92578125,-916.015625,93.26171875,156.25,48.33984375
1510191132.9964936,5.859375,-971.19140625,70.80078125,-31.25,77.63671875
1510191133.0003998,17.578125,-982.421875,80.56640625,5.859375,-3.41796875
1510191133.004306,19.04296875,-910.15625,104.98046875,216.796875,10.25390625
1510191133.0082123,-20.5078125,-897.4609375,98.6328125,202.1484375,-20.01953125
1510191133.0121186,-20.5078125,-975.09765625,79.58984375,-17.578125,7.8125
1510191133.0160248,-9.27734375,-977.05078125,80.078125,-66.40625,42.48046875
1510191133.019931,-0.9765625,-940.91796875,115.72265625,144.04296875,12.6953125
1510191133.0238373,25.87890625,-931.15234375,120.1171875,237.3046875,16.11328125
1510191133.0277436,-2.44140625,-974.12109375,95.703125,43.45703125,-20.99609375
1510191133.0316498,-44.43359375,-970.21484375,100.09765625,-102.05078125,-35.15625
1510191133.035556,-23.4375,-969.7265625,124.0234375,29.296875,68.84765625
1510191133.0376284,1.46484375,-965.8203125,148.4375,198.2421875,107.421875
1510191133.0415347,-29.78515625,-966.796875,138.18359375,42.48046875,38.0859375
1510191133.045441,-86.9140625,-970.21484375,122.55859375,-144.04296875,8.30078125
1510191133.0493472,-93.26171875,-974.12109375,133.30078125,-60.05859375,-6.34765625
1510191133.0532534,-49.31640625,-938.4765625,161.62109375,126.46484375,8.30078125
1510191133.0571597,-58.10546875,-944.82421875,156.73828125,37.59765625,33.69140625
1510191133.061066,-114.2578125,-976.07421875,130.859375,-172.36328125,26.3671875
1510191133.0649722,-99.12109375,-968.26171875,127.44140625,-153.3203125,45.8984375
1510191133.0688784,-70.80078125,-970.21484375,144.53125,32.71484375,30.2734375
1510191133.0727847,-81.54296875,-971.19140625,155.2734375,37.59765625,-20.99609375
1510191133.076691,-95.703125,-964.35546875,128.41796875,-127.9296875,-36.62109375
1510191133.0805972,-110.83984375,-982.421875,111.328125,-192.87109375,-35.15625
1510191133.082651,-93.75,-932.12890625,141.11328125,-7.8125,24.4140625
1510191133.0865571,-37.109375,-861.328125,152.34375,146.484375,54.19921875
1510191133.0904634,-45.8984375,-946.2890625,118.65234375,-13.671875,5.37109375
1510191133.0943696,-63.96484375,-978.515625,97.16796875,-160.15625,-3.90625
1510191133.098276,-20.5078125,-965.33203125,110.3515625,-6.8359375,-27.83203125
1510191133.1021821,20.01953125,-971.19140625,121.58203125,175.29296875,-88.37890625
1510191133.1060884,16.6015625,-967.7734375,102.5390625,58.59375,-16.11328125
1510191133.1099946,-10.25390625,-961.9140625,63.4765625,-105.95703125,58.59375
1510191133.113901,-14.16015625,-997.0703125,67.3828125,-22.94921875,19.04296875
1510191133.1178071,24.4140625,-786.1328125,108.3984375,188.4765625,42.48046875
1510191133.1217134,50.29296875,-685.546875,92.28515625,186.03515625,75.1953125
1510191133.1256196,34.66796875,-931.15234375,52.734375,18.06640625,64.94140625
1510191133.1276832,36.1328125,-1000.0,51.26953125,-3.41796875,13.671875
1510191133.1315894,53.22265625,-837.890625,77.1484375,190.4296875,-60.05859375
1510191133.1354957,60.05859375,-675.78125,78.61328125,238.76953125,-28.3203125
1510191133.139402,58.59375,-895.5078125,50.78125,40.52734375,13.18359375
1510191133.1433082,42.48046875,-1000.0,38.57421875,-44.921875,16.11328125
1510191133.1472144,50.78125,-893.5546875,57.6171875,143.5546875,66.89453125
1510191133.1511207,68.359375,-811.03515625,69.3359375,288.57421875,-8.7890625
1510191133.155027,59.08203125,-937.98828125,44.921875,103.515625,-67.3828125
1510191133.1589332,31.73828125,-1000.0,32.71484375,-50.29296875,-62.5
1510191133.1628394,48.828125,-891.11328125,55.6640625,94.23828125,-39.55078125
1510191133.1667457,67.3828125,-556.15234375,78.61328125,281.73828125,40.52734375
1510191133.170652,39.55078125,-542.96875,64.94140625,187.5,35.15625
1510191133.1727152,6.8359375,-866.2109375,46.875,-5.859375,8.7890625
1510191133.1766214,33.69140625,-992.1875,46.875,28.80859375,-30.76171875
1510191133.1805277,61.5234375,-707.51953125,66.89453125,256.34765625,-50.78125
1510191133.184434,58.59375,-449.21875,69.82421875,236.328125,11.71875
1510191133.1883402,49.8046875,-745.1171875,40.0390625,7.8125,16.11328125
1510191133.1922464,24.4140625,-994.140625,28.3203125,-9.27734375,-27.34375
1510191133.1961527,31.73828125,-955.078125,53.7109375,189.453125,-4.39453125
1510191133.200059,53.22265625,-685.05859375,74.21875,242.1875,37.59765625
1510191133.2039652,46.875,-644.04296875,60.546875,58.10546875,25.390625
1510191133.2078714,23.4375,-1000.0,42.96875,-41.015625,41.015625
1510191133.2117777,37.109375,-854.00390625,71.77734375,125.48828125,38.0859375
1510191133.215684,62.01171875,-359.86328125,96.19140625,261.23046875,17.08984375
1510191133.2177541,38.57421875,-491.2109375,73.73046875,105.95703125,-8.7890625
1510191133.2216604,18.5546875,-965.33203125,47.8515625,-42.96875,-43.9453125
1510191133.2255666,25.87890625,-901.3671875,65.4296875,49.8046875,31.73828125
1510191133.2294729,49.31640625,-429.6875,94.23828125,229.4921875,69.82421875
1510191133.2333791,47.36328125,-440.91796875,76.66015625,165.0390625,28.3203125
1510191133.2372854,12.6953125,-883.7890625,39.55078125,-19.53125,-38.57421875
1510191133.2411916,9.27734375,-1000.0,42.96875,-7.8125,-48.828125
1510191133.2450979,32.2265625,-692.3828125,86.42578125,182.6171875,16.11328125
1510191133.2490041,46.38671875,-432.6171875,97.16796875,208.0078125,34.66796875
1510191133.2529104,4.8828125,-771.97265625,60.546875,12.20703125,10.7421875
1510191133.2568166,-22.94921875,-1000.0,48.33984375,-62.98828125,21.484375
1510191133.2607229,11.23046875,-813.96484375,82.03125,153.3203125,39.0625
1510191133.2773097,40.52734375,-595.703125,92.28515625,252.9296875,-22.94921875
1510191133.281216,38.0859375,-787.59765625,66.89453125,51.7578125,-1.46484375
1510191133.2851222,24.4140625,-1000.0,48.828125,-75.1953125,1.46484375
1510191133.2890284,28.80859375,-893.06640625,76.66015625,69.82421875,9.27734375
1510191133.2929347,31.73828125,-565.91796875,102.05078125,226.07421875,54.6875
1510191133.296841,18.5546875,-734.375,73.73046875,93.26171875,29.78515625
1510191133.3007472,9.27734375,-1000.0,52.734375,-65.91796875,37.109375
1510191133.3046534,15.625,-973.6328125,74.70703125,9.765625,24.4140625
1510191133.3085597,25.390625,-760.25390625,101.07421875,192.87109375,-30.76171875
1510191133.312466,13.18359375,-781.25,87.890625,150.87890625,30.2734375
1510191133.3163722,-16.11328125,-990.72265625,66.40625,-46.38671875,66.89453125
1510191133.3202784,-11.23046875,-984.375,74.21875,-41.015625,11.71875
1510191133.3223238,26.85546875,-853.02734375,96.6796875,162.109375,4.8828125
1510191133.32623,41.50390625,-768.5546875,94.7265625,188.96484375,50.78125
1510191133.3301363,19.53125,-917.48046875,69.82421875,-9.27734375,89.84375
1510191133.3340425,2.44140625,-978.515625,58.10546875,-89.35546875,78.125
1510191133.3379488,22.4609375,-954.1015625,77.1484375,106.93359375,42.96875
1510191133.341855,38.0859375,-939.94140625,86.9140625,235.83984375,71.2890625
1510191133.3457613,13.18359375,-958.49609375,65.4296875,53.7109375,37.59765625
1510191133.3496675,-5.859375,-972.65625,54.6875,-88.8671875,-37.109375
1510191133.3535738,3.90625,-969.7265625,67.3828125,60.05859375,-3.90625
1510191133.35748,19.53125,-968.26171875,84.9609375,219.23828125,34.66796875
1510191133.3613863,10.7421875,-965.33203125,77.1484375,92.7734375,16.6015625
1510191133.3652925,-3.90625,-964.35546875,56.640625,-56.15234375,44.921875
1510191133.3673544,12.6953125,-990.72265625,61.03515625,15.625,22.4609375
1510191133.3712606,30.2734375,-863.76953125,88.37890625,189.94140625,-5.37109375
1510191133.375167,15.13671875,-826.66015625,89.35546875,165.0390625,2.9296875
1510191133.3790731,14.16015625,-972.16796875,63.96484375,-21.97265625,8.30078125
1510191133.3829794,23.92578125,-978.515625,58.59375,-49.8046875,-0.48828125
1510191133.3868856,22.94921875,-947.75390625,89.84375,144.04296875,7.32421875
1510191133.390792,18.5546875,-936.5234375,99.609375,201.66015625,20.99609375
1510191133.3946981,7.8125,-960.9375,72.265625,-1.953125,-11.23046875
1510191133.3986044,5.859375,-985.83984375,54.6875,-94.7265625,-5.859375
1510191133.4025106,7.8125,-921.875,81.54296875,101.5625,8.30078125
1510191133.406417,19.04296875,-669.43359375,113.76953125,223.14453125,38.0859375
1510191133.4103231,32.2265625,-773.4375,85.9375,53.7109375,50.78125
1510191133.4123847,18.5546875,-1000.0,56.640625,-71.2890625,-35.15625
1510191133.416291,27.83203125,-949.21875,77.63671875,43.9453125,-21.484375
1510191133.4201972,41.50390625,-720.703125,100.5859375,202.63671875,11.71875
1510191133.4241035,13.18359375,-774.4140625,82.03125,108.88671875,26.3671875
1510191133.4280097,-18.06640625,-975.09765625,55.17578125,-60.05859375,40.52734375
1510191133.431916,1.953125,-998.046875,63.4765625,-21.97265625,-34.1796875
1510191133.4358222,33.203125,-838.37890625,97.65625,161.1328125,20.5078125
1510191133.4397285,24.4140625,-774.90234375,87.40234375,165.0390625,35.64453125
1510191133.4436347,2.9296875,-967.7734375,55.17578125,-10.7421875,22.94921875
1510191133.447541,-2.44140625,-997.0703125,62.98828125,-55.6640625,44.43359375
1510191133.4514472,30.76171875,-880.859375,87.40234375,139.16015625,1.953125
